File: CB_UV_VIS_0mM.txt
"20-30mM-1_CB0mM - RawData"
"Wavelength nm."	"Abs."
300.00	0.0617
311.00	0.0595
322.00	0.0582
333.00	0.0581
344.00	0.0646
355.00	0.0707
366.00	0.0777
377.00	0.0842
388.00	0.0933
399.00	0.1046
410.00	0.1177
421.00	0.1338
432.00	0.1522
443.00	0.1745
454.00	0.2016
465.00	0.2314
476.00	0.2601
487.00	0.2887
498.00	0.3120
509.00	0.3314
520.00	0.3409
531.00	0.3409
542.00	0.3361
553.00	0.3304
564.00	0.3089
575.00	0.2748
586.00	0.2456
597.00	0.2280
608.00	0.2077
619.00	0.1700
630.00	0.1269
641.00	0.0926
652.00	0.0735
663.00	0.0619
674.00	0.0570
685.00	0.0518
696.00	0.0487
707.00	0.0467
718.00	0.0462
729.00	0.0420
740.00	0.0413
751.00	0.0403
762.00	0.0397
773.00	0.0386
784.00	0.0370
795.00	0.0329
806.00	0.0235
817.00	0.0194
828.00	0.0196
839.00	0.0189
850.00	0.0193
861.00	0.0182
872.00	0.0174
883.00	0.0168
894.00	0.0164
905.00	0.0163
916.00	0.0155
927.00	0.0154
938.00	0.0152
949.00	0.0148
960.00	0.0145
971.00	0.0145
982.00	0.0143
993.00	0.0141
1004.00	0.0137
1015.00	0.0131
1026.00	0.0130
1037.00	0.0128
1048.00	0.0120
1059.00	0.0128
1070.00	0.0117
1081.00	0.0120
1092.00	0.0120
1103.00	0.0120
1114.00	0.0115
1125.00	0.0113
1136.00	0.0113
1147.00	0.0110
1158.00	0.0110
1169.00	0.0110
1180.00	0.0110
1191.00	0.0108
1202.00	0.0108
1213.00	0.0111
1224.00	0.0110
1235.00	0.0109
1246.00	0.0108
1257.00	0.0099
1268.00	0.0102
1279.00	0.0104
1290.00	0.0098
1301.00	0.0097
1312.00	0.0092
1323.00	0.0088
1334.00	0.0090
1345.00	0.0081
1356.00	0.0087
1367.00	0.0092
1378.00	0.0098
1389.00	0.0086
1400.00	0.0094
1411.00	0.0089
1422.00	0.0091
1433.00	0.0091
1444.00	0.0086
1455.00	0.0082
1466.00	0.0086
1477.00	0.0085
1488.00	0.0080
1499.00	0.0080
1510.00	0.0085
1521.00	0.0082
1532.00	0.0073
1543.00	0.0078
1554.00	0.0081
1565.00	0.0082
1576.00	0.0080
1587.00	0.0083
1598.00	0.0083
1609.00	0.0082
1620.00	0.0086
1631.00	0.0089
1642.00	0.0078
1653.00	0.0043
1664.00	0.0030
1675.00	0.0026
1686.00	0.0021
1697.00	0.0021
1708.00	0.0021
1719.00	0.0028
1730.00	0.0031
1741.00	0.0029
1752.00	0.0027
1763.00	0.0025
1774.00	0.0026
1785.00	0.0033
1796.00	0.0030
1807.00	0.0033
1818.00	0.0026
1829.00	0.0038
1840.00	0.0031
1851.00	0.0023
1862.00	0.0031
1873.00	0.0033
1884.00	0.0027
1895.00	0.0024
1906.00	0.0032
1917.00	0.0033
1928.00	0.0035
1939.00	0.0026
1950.00	0.0030
1961.00	0.0035
1972.00	0.0029
1983.00	0.0026
1994.00	0.0032
2005.00	0.0034
2016.00	0.0028
2027.00	0.0026
2038.00	0.0031
2049.00	0.0027
2060.00	0.0032
2071.00	0.0036
2082.00	0.0022
2093.00	0.0022
2104.00	0.0025
2115.00	0.0026
2126.00	0.0025
2137.00	0.0031
2148.00	0.0027
2159.00	0.0022
2170.00	0.0024
2181.00	0.0029
2192.00	0.0025
2203.00	0.0012
2214.00	0.0004
2225.00	-0.0002
2236.00	0.0014
2247.00	0.0021
2258.00	0.0025
2269.00	0.0026
2280.00	0.0019
2291.00	0.0021
2302.00	0.0023
2313.00	0.0018
2324.00	0.0033
2335.00	0.0017
2346.00	0.0022
2357.00	0.0028
2368.00	0.0024
2379.00	0.0024
2390.00	0.0032
2401.00	0.0036
2412.00	0.0029
2423.00	0.0018
2434.00	0.0018
2445.00	0.0024
2456.00	0.0016
2467.00	0.0012
2478.00	0.0018
2489.00	0.0020
2500.00	0.0014
2511.00	0.0019
2522.00	0.0016
2533.00	0.0017
2544.00	0.0014
2555.00	-0.0008
2566.00	0.0008
2577.00	-0.0001
2588.00	-0.0014
2599.00	-0.0026
2610.00	-0.0009
2621.00	-0.0005
2632.00	-0.0006
2643.00	-0.0009
2654.00	-0.0043
2665.00	-0.0076
2676.00	0.0007
2687.00	-0.0144
2698.00	-0.0374
2709.00	-0.0524
2720.00	-0.0826
2731.00	-0.0956
2742.00	-0.0880
2753.00	-0.0825
2764.00	-0.0745
2775.00	-0.0602
2786.00	-0.0542
2797.00	-0.0432
2808.00	-0.0347
2819.00	-0.0279
2830.00	-0.0201
2841.00	-0.0154
2852.00	-0.0113
2863.00	-0.0081
2874.00	-0.0061
2885.00	-0.0047
2896.00	-0.0039
2907.00	-0.0027
2918.00	-0.0018
2929.00	-0.0017
2940.00	-0.0010
2951.00	-0.0005
2962.00	-0.0001
2973.00	0.0012
2984.00	0.0004
2995.00	0.0010
3006.00	0.0109
3017.00	0.0132
3028.00	0.0132
3039.00	0.0135
3050.00	0.0138
3061.00	0.0143
3072.00	0.0150
3083.00	0.0153
3094.00	0.0152
3105.00	0.0152
3116.00	0.0144
3127.00	0.0127
3138.00	0.0128
3149.00	0.0135
3160.00	0.0131
3171.00	0.0131
3182.00	0.0143
3193.00	0.0136
3204.00	0.0135
3215.00	0.0134
3226.00	0.0158
3237.00	0.0157
3248.00	0.0108
3259.00	0.0114
3270.00	0.0102
3281.00	0.0093
3292.00	0.0179
3300.00	0.0296