File: CB_UV_VIS_20mM.txt
"20-30mM-CB20mM - RawData"
"Wavelength nm."	"Abs."
300.00	0.1379
311.00	0.1555
322.00	0.1785
333.00	0.1975
344.00	0.2187
355.00	0.2316
366.00	0.2412
377.00	0.2509
388.00	0.2646
399.00	0.2776
410.00	0.2934
421.00	0.3007
432.00	0.2970
443.00	0.2915
454.00	0.2881
465.00	0.2936
476.00	0.2985
487.00	0.3025
498.00	0.3021
509.00	0.3001
520.00	0.2906
531.00	0.2795
542.00	0.2663
553.00	0.2557
564.00	0.2453
575.00	0.2349
586.00	0.2210
597.00	0.2070
608.00	0.1940
619.00	0.1834
630.00	0.1769
641.00	0.1715
652.00	0.1705
663.00	0.1706
674.00	0.1730
685.00	0.1747
696.00	0.1760
707.00	0.1770
718.00	0.1782
729.00	0.1787
740.00	0.1821
751.00	0.1851
762.00	0.1879
773.00	0.1880
784.00	0.1843
795.00	0.1794
806.00	0.1708
817.00	0.1659
828.00	0.1649
839.00	0.1658
850.00	0.1694
861.00	0.1703
872.00	0.1692
883.00	0.1646
894.00	0.1553
905.00	0.1456
916.00	0.1368
927.00	0.1288
938.00	0.1215
949.00	0.1141
960.00	0.1071
971.00	0.1005
982.00	0.0941
993.00	0.0880
1004.00	0.0820
1015.00	0.0766
1026.00	0.0717
1037.00	0.0670
1048.00	0.0623
1059.00	0.0599
1070.00	0.0563
1081.00	0.0532
1092.00	0.0513
1103.00	0.0497
1114.00	0.0477
1125.00	0.0461
1136.00	0.0452
1147.00	0.0447
1158.00	0.0441
1169.00	0.0429
1180.00	0.0438
1191.00	0.0439
1202.00	0.0437
1213.00	0.0442
1224.00	0.0449
1235.00	0.0451
1246.00	0.0457
1257.00	0.0460
1268.00	0.0469
1279.00	0.0479
1290.00	0.0481
1301.00	0.0496
1312.00	0.0506
1323.00	0.0521
1334.00	0.0528
1345.00	0.0544
1356.00	0.0560
1367.00	0.0576
1378.00	0.0596
1389.00	0.0613
1400.00	0.0636
1411.00	0.0656
1422.00	0.0678
1433.00	0.0700
1444.00	0.0712
1455.00	0.0740
1466.00	0.0767
1477.00	0.0786
1488.00	0.0811
1499.00	0.0837
1510.00	0.0862
1521.00	0.0884
1532.00	0.0913
1543.00	0.0939
1554.00	0.0966
1565.00	0.0991
1576.00	0.1015
1587.00	0.1047
1598.00	0.1072
1609.00	0.1102
1620.00	0.1128
1631.00	0.1151
1642.00	0.1167
1653.00	0.1172
1664.00	0.1184
1675.00	0.1209
1686.00	0.1230
1697.00	0.1247
1708.00	0.1269
1719.00	0.1293
1730.00	0.1311
1741.00	0.1335
1752.00	0.1354
1763.00	0.1369
1774.00	0.1392
1785.00	0.1409
1796.00	0.1429
1807.00	0.1444
1818.00	0.1454
1829.00	0.1481
1840.00	0.1491
1851.00	0.1488
1862.00	0.1521
1873.00	0.1520
1884.00	0.1530
1895.00	0.1543
1906.00	0.1569
1917.00	0.1568
1928.00	0.1581
1939.00	0.1591
1950.00	0.1595
1961.00	0.1612
1972.00	0.1618
1983.00	0.1623
1994.00	0.1629
2005.00	0.1644
2016.00	0.1649
2027.00	0.1642
2038.00	0.1651
2049.00	0.1657
2060.00	0.1669
2071.00	0.1668
2082.00	0.1674
2093.00	0.1672
2104.00	0.1679
2115.00	0.1681
2126.00	0.1680
2137.00	0.1686
2148.00	0.1683
2159.00	0.1677
2170.00	0.1682
2181.00	0.1686
2192.00	0.1682
2203.00	0.1668
2214.00	0.1663
2225.00	0.1663
2236.00	0.1666
2247.00	0.1664
2258.00	0.1667
2269.00	0.1666
2280.00	0.1665
2291.00	0.1670
2302.00	0.1664
2313.00	0.1665
2324.00	0.1662
2335.00	0.1660
2346.00	0.1650
2357.00	0.1655
2368.00	0.1642
2379.00	0.1634
2390.00	0.1643
2401.00	0.1644
2412.00	0.1632
2423.00	0.1627
2434.00	0.1616
2445.00	0.1620
2456.00	0.1614
2467.00	0.1607
2478.00	0.1601
2489.00	0.1586
2500.00	0.1588
2511.00	0.1587
2522.00	0.1583
2533.00	0.1570
2544.00	0.1563
2555.00	0.1552
2566.00	0.1562
2577.00	0.1572
2588.00	0.1524
2599.00	0.1531
2610.00	0.1493
2621.00	0.1518
2632.00	0.1509
2643.00	0.1500
2654.00	0.1489
2665.00	0.1463
2676.00	0.1518
2687.00	0.1442
2698.00	0.1564
2709.00	0.1873
2720.00	0.2099
2731.00	0.1975
2742.00	0.1730
2753.00	0.1477
2764.00	0.1321
2775.00	0.1226
2786.00	0.1206
2797.00	0.1193
2808.00	0.1212
2819.00	0.1232
2830.00	0.1268
2841.00	0.1291
2852.00	0.1310
2863.00	0.1322
2874.00	0.1330
2885.00	0.1334
2896.00	0.1331
2907.00	0.1335
2918.00	0.1334
2929.00	0.1332
2940.00	0.1322
2951.00	0.1325
2962.00	0.1323
2973.00	0.1320
2984.00	0.1319
2995.00	0.1318
3006.00	0.1350
3017.00	0.1349
3028.00	0.1346
3039.00	0.1337
3050.00	0.1328
3061.00	0.1333
3072.00	0.1332
3083.00	0.1317
3094.00	0.1311
3105.00	0.1314
3116.00	0.1307
3127.00	0.1296
3138.00	0.1287
3149.00	0.1278
3160.00	0.1269
3171.00	0.1260
3182.00	0.1268
3193.00	0.1267
3204.00	0.1271
3215.00	0.1254
3226.00	0.1262
3237.00	0.1242
3248.00	0.1197
3259.00	0.1241
3270.00	0.1196
3281.00	0.1177
3292.00	0.1328
3300.00	0.1406