File: CB_UV_VIS_30mM.txt
"20-30mM-CB30mM - RawData"
"Wavelength nm."	"Abs."
300.00	0.1420
311.00	0.1582
322.00	0.1768
333.00	0.1913
344.00	0.2094
355.00	0.2229
366.00	0.2346
377.00	0.2499
388.00	0.2707
399.00	0.2879
410.00	0.3063
421.00	0.3112
432.00	0.2992
443.00	0.2874
454.00	0.2796
465.00	0.2833
476.00	0.2882
487.00	0.2926
498.00	0.2946
509.00	0.2942
520.00	0.2892
531.00	0.2812
542.00	0.2712
553.00	0.2618
564.00	0.2518
575.00	0.2423
586.00	0.2287
597.00	0.2149
608.00	0.2018
619.00	0.1920
630.00	0.1855
641.00	0.1801
652.00	0.1791
663.00	0.1797
674.00	0.1832
685.00	0.1845
696.00	0.1858
707.00	0.1870
718.00	0.1881
729.00	0.1890
740.00	0.1936
751.00	0.1990
762.00	0.2039
773.00	0.2038
784.00	0.1982
795.00	0.1914
806.00	0.1800
817.00	0.1739
828.00	0.1732
839.00	0.1760
850.00	0.1832
861.00	0.1856
872.00	0.1847
883.00	0.1787
894.00	0.1666
905.00	0.1551
916.00	0.1445
927.00	0.1351
938.00	0.1275
949.00	0.1188
960.00	0.1114
971.00	0.1047
982.00	0.0978
993.00	0.0916
1004.00	0.0855
1015.00	0.0798
1026.00	0.0750
1037.00	0.0699
1048.00	0.0651
1059.00	0.0624
1070.00	0.0591
1081.00	0.0561
1092.00	0.0539
1103.00	0.0522
1114.00	0.0502
1125.00	0.0488
1136.00	0.0479
1147.00	0.0470
1158.00	0.0466
1169.00	0.0456
1180.00	0.0462
1191.00	0.0461
1202.00	0.0460
1213.00	0.0465
1224.00	0.0468
1235.00	0.0474
1246.00	0.0482
1257.00	0.0480
1268.00	0.0488
1279.00	0.0493
1290.00	0.0496
1301.00	0.0512
1312.00	0.0523
1323.00	0.0530
1334.00	0.0544
1345.00	0.0557
1356.00	0.0569
1367.00	0.0589
1378.00	0.0605
1389.00	0.0620
1400.00	0.0635
1411.00	0.0663
1422.00	0.0682
1433.00	0.0701
1444.00	0.0710
1455.00	0.0739
1466.00	0.0761
1477.00	0.0788
1488.00	0.0810
1499.00	0.0831
1510.00	0.0861
1521.00	0.0884
1532.00	0.0906
1543.00	0.0927
1554.00	0.0954
1565.00	0.0982
1576.00	0.1006
1587.00	0.1037
1598.00	0.1062
1609.00	0.1092
1620.00	0.1116
1631.00	0.1146
1642.00	0.1154
1653.00	0.1141
1664.00	0.1146
1675.00	0.1169
1686.00	0.1189
1697.00	0.1208
1708.00	0.1227
1719.00	0.1252
1730.00	0.1274
1741.00	0.1296
1752.00	0.1313
1763.00	0.1332
1774.00	0.1352
1785.00	0.1375
1796.00	0.1388
1807.00	0.1409
1818.00	0.1424
1829.00	0.1442
1840.00	0.1463
1851.00	0.1465
1862.00	0.1490
1873.00	0.1496
1884.00	0.1509
1895.00	0.1519
1906.00	0.1548
1917.00	0.1550
1928.00	0.1563
1939.00	0.1559
1950.00	0.1572
1961.00	0.1587
1972.00	0.1593
1983.00	0.1601
1994.00	0.1608
2005.00	0.1615
2016.00	0.1623
2027.00	0.1625
2038.00	0.1634
2049.00	0.1636
2060.00	0.1648
2071.00	0.1655
2082.00	0.1656
2093.00	0.1657
2104.00	0.1667
2115.00	0.1664
2126.00	0.1673
2137.00	0.1676
2148.00	0.1671
2159.00	0.1669
2170.00	0.1674
2181.00	0.1673
2192.00	0.1670
2203.00	0.1661
2214.00	0.1653
2225.00	0.1645
2236.00	0.1655
2247.00	0.1662
2258.00	0.1662
2269.00	0.1660
2280.00	0.1657
2291.00	0.1656
2302.00	0.1659
2313.00	0.1655
2324.00	0.1658
2335.00	0.1647
2346.00	0.1647
2357.00	0.1643
2368.00	0.1640
2379.00	0.1637
2390.00	0.1632
2401.00	0.1632
2412.00	0.1616
2423.00	0.1613
2434.00	0.1622
2445.00	0.1616
2456.00	0.1613
2467.00	0.1597
2478.00	0.1599
2489.00	0.1595
2500.00	0.1581
2511.00	0.1579
2522.00	0.1582
2533.00	0.1566
2544.00	0.1561
2555.00	0.1535
2566.00	0.1547
2577.00	0.1545
2588.00	0.1522
2599.00	0.1510
2610.00	0.1511
2621.00	0.1512
2632.00	0.1503
2643.00	0.1490
2654.00	0.1481
2665.00	0.1457
2676.00	0.1473
2687.00	0.1441
2698.00	0.1546
2709.00	0.1896
2720.00	0.2115
2731.00	0.1972
2742.00	0.1719
2753.00	0.1501
2764.00	0.1308
2775.00	0.1213
2786.00	0.1187
2797.00	0.1194
2808.00	0.1195
2819.00	0.1226
2830.00	0.1252
2841.00	0.1288
2852.00	0.1305
2863.00	0.1316
2874.00	0.1326
2885.00	0.1333
2896.00	0.1330
2907.00	0.1337
2918.00	0.1336
2929.00	0.1330
2940.00	0.1327
2951.00	0.1334
2962.00	0.1318
2973.00	0.1325
2984.00	0.1320
2995.00	0.1318
3006.00	0.1333
3017.00	0.1329
3028.00	0.1326
3039.00	0.1325
3050.00	0.1318
3061.00	0.1318
3072.00	0.1318
3083.00	0.1309
3094.00	0.1296
3105.00	0.1293
3116.00	0.1281
3127.00	0.1268
3138.00	0.1266
3149.00	0.1258
3160.00	0.1244
3171.00	0.1239
3182.00	0.1234
3193.00	0.1228
3204.00	0.1223
3215.00	0.1217
3226.00	0.1224
3237.00	0.1210
3248.00	0.1185
3259.00	0.1186
3270.00	0.1189
3281.00	0.1113
3292.00	0.1166
3300.00	0.1155