File: CB_UV_VIS_10mM.txt
"RawData - P3h-Doped F4tcnq_CB-10mmol"
"Wavelength nm.","Abs."
300.00,
311.00,
322.00,
333.00,
344.00,
355.00,
366.00,
377.00,
388.00,
399.00,
410.00,
421.00,
432.00,
443.00,
454.00,
465.00,
476.00,
487.00,
498.00,
509.00,
520.00,
531.00,
542.00,
553.00,
564.00,
575.00,
586.00,
597.00,
608.00,
619.00,
630.00,
641.00,
652.00,
663.00,
674.00,
685.00,
696.00,
707.00,
718.00,
729.00,
740.00,
751.00,
762.00,
773.00,
784.00,
795.00,
806.00,
817.00,
828.00,
839.00,
850.00,
861.00,
872.00,
883.00,
894.00,
905.00,
916.00,
927.00,
938.00,
949.00,
960.00,
971.00,
982.00,
993.00,
1004.00,0.0603
1015.00,
1026.00,0.0514
1037.00,
1048.00,0.0437
1059.00,
1070.00,0.0377
1081.00,
1092.00,0.0337
1103.00,
1114.00,0.0309
1125.00,
1136.00,0.0289
1147.00,
1158.00,0.0281
1169.00,
1180.00,0.0274
1191.00,
1202.00,0.0278
1213.00,
1224.00,0.0282
1235.00,
1246.00,0.0291
1257.00,
1268.00,0.0302
1279.00,
1290.00,0.0316
1301.00,
1312.00,0.0328
1323.00,
1334.00,0.0359
1345.00,
1356.00,0.0379
1367.00,
1378.00,0.0409
1389.00,
1400.00,0.0437
1411.00,
1422.00,0.0471
1433.00,
1444.00,0.0507
1455.00,
1466.00,0.0549
1477.00,
1488.00,0.0592
1499.00,
1510.00,0.0635
1521.00,
1532.00,0.0683
1543.00,
1554.00,0.0727
1565.00,
1576.00,0.0776
1587.00,
1598.00,0.0826
1609.00,
1620.00,0.0875
1631.00,
1642.00,0.0918
1653.00,
1664.00,0.0992
1675.00,
1686.00,0.1029
1697.00,
1708.00,0.1067
1719.00,
1730.00,0.1104
1741.00,
1752.00,0.1139
1763.00,
1774.00,0.1172
1785.00,
1796.00,0.1203
1807.00,
1818.00,0.1238
1829.00,
1840.00,0.1268
1851.00,
1862.00,0.1290
1873.00,
1884.00,0.1306
1895.00,
1906.00,0.1335
1917.00,
1928.00,0.1336
1939.00,
1950.00,0.1347
1961.00,
1972.00,0.1351
1983.00,
1994.00,0.1357
2005.00,
2016.00,0.1362
2027.00,
2038.00,0.1366
2049.00,
2060.00,0.1376
2071.00,
2082.00,0.1379
2093.00,
2104.00,0.1377
2115.00,
2126.00,0.1373
2137.00,
2148.00,0.1367
2159.00,
2170.00,0.1359
2181.00,
2192.00,0.1359
2203.00,
2214.00,0.1362
2225.00,
2236.00,0.1348
2247.00,
2258.00,0.1331
2269.00,
2280.00,0.1326
2291.00,
2302.00,0.1317
2313.00,
2324.00,0.1301
2335.00,
2346.00,0.1287
2357.00,
2368.00,0.1276
2379.00,
2390.00,0.1262
2401.00,
2412.00,0.1250
2423.00,
2434.00,0.1235
2445.00,
2456.00,0.1230
2467.00,
2478.00,0.1210
2489.00,
2500.00,0.1204
2511.00,
2522.00,0.1205
2533.00,
2544.00,0.1188
2555.00,
2566.00,0.1184
2577.00,
2588.00,0.1162
2599.00,
2610.00,0.1156
2621.00,
2632.00,0.1123
2643.00,
2654.00,0.1101
2665.00,
2676.00,0.1221
2687.00,
2698.00,0.1590
2709.00,
2720.00,0.1691
2731.00,
2742.00,0.1477
2753.00,
2764.00,0.1321
2775.00,
2786.00,0.1198
2797.00,
2808.00,0.1111
2819.00,
2830.00,0.1064
2841.00,
2852.00,0.1033
2863.00,
2874.00,0.1010
2885.00,
2896.00,0.0991
2907.00,
2918.00,0.0974
2929.00,
2940.00,0.0956
2951.00,
2962.00,0.0939
2973.00,
2984.00,0.0930
2995.00,
3006.00,0.0913
3017.00,
3028.00,0.0901
3039.00,
3050.00,0.0889
3061.00,
3072.00,0.0877
3083.00,
3094.00,0.0862
3105.00,
3116.00,0.0852
3127.00,
3138.00,0.0836
3149.00,
3160.00,0.0826
3171.00,
3182.00,0.0810
3193.00,
3204.00,0.0789
3215.00,
3226.00,0.0788
3237.00,
3248.00,0.0797
3259.00,
3270.00,0.0777
3281.00,
3292.00,0.0759
3300.00,0.0775