File: CF_UV_VIS_0mM.txt
"20-30mM-1_CF0mM - RawData"
"Wavelength nm."	"Abs."
300.00	0.0634
311.00	0.0603
322.00	0.0598
333.00	0.0597
344.00	0.0671
355.00	0.0737
366.00	0.0813
377.00	0.0896
388.00	0.1003
399.00	0.1133
410.00	0.1282
421.00	0.1452
432.00	0.1661
443.00	0.1904
454.00	0.2200
465.00	0.2526
476.00	0.2841
487.00	0.3159
498.00	0.3422
509.00	0.3647
520.00	0.3767
531.00	0.3758
542.00	0.3707
553.00	0.3650
564.00	0.3425
575.00	0.3051
586.00	0.2735
597.00	0.2560
608.00	0.2365
619.00	0.1963
630.00	0.1474
641.00	0.1076
652.00	0.0850
663.00	0.0717
674.00	0.0650
685.00	0.0592
696.00	0.0553
707.00	0.0526
718.00	0.0505
729.00	0.0476
740.00	0.0457
751.00	0.0449
762.00	0.0437
773.00	0.0426
784.00	0.0407
795.00	0.0371
806.00	0.0289
817.00	0.0250
828.00	0.0243
839.00	0.0237
850.00	0.0230
861.00	0.0222
872.00	0.0217
883.00	0.0211
894.00	0.0204
905.00	0.0198
916.00	0.0195
927.00	0.0190
938.00	0.0190
949.00	0.0183
960.00	0.0179
971.00	0.0175
982.00	0.0172
993.00	0.0172
1004.00	0.0167
1015.00	0.0160
1026.00	0.0159
1037.00	0.0155
1048.00	0.0157
1059.00	0.0151
1070.00	0.0150
1081.00	0.0143
1092.00	0.0144
1103.00	0.0143
1114.00	0.0139
1125.00	0.0136
1136.00	0.0134
1147.00	0.0134
1158.00	0.0129
1169.00	0.0128
1180.00	0.0126
1191.00	0.0126
1202.00	0.0123
1213.00	0.0129
1224.00	0.0127
1235.00	0.0130
1246.00	0.0126
1257.00	0.0121
1268.00	0.0120
1279.00	0.0117
1290.00	0.0110
1301.00	0.0113
1312.00	0.0108
1323.00	0.0103
1334.00	0.0098
1345.00	0.0103
1356.00	0.0101
1367.00	0.0105
1378.00	0.0112
1389.00	0.0110
1400.00	0.0110
1411.00	0.0104
1422.00	0.0106
1433.00	0.0094
1444.00	0.0095
1455.00	0.0097
1466.00	0.0096
1477.00	0.0095
1488.00	0.0088
1499.00	0.0088
1510.00	0.0095
1521.00	0.0090
1532.00	0.0089
1543.00	0.0088
1554.00	0.0089
1565.00	0.0089
1576.00	0.0085
1587.00	0.0089
1598.00	0.0089
1609.00	0.0091
1620.00	0.0087
1631.00	0.0094
1642.00	0.0083
1653.00	0.0047
1664.00	0.0034
1675.00	0.0029
1686.00	0.0029
1697.00	0.0025
1708.00	0.0025
1719.00	0.0028
1730.00	0.0032
1741.00	0.0029
1752.00	0.0029
1763.00	0.0029
1774.00	0.0031
1785.00	0.0036
1796.00	0.0034
1807.00	0.0035
1818.00	0.0025
1829.00	0.0039
1840.00	0.0033
1851.00	0.0026
1862.00	0.0034
1873.00	0.0031
1884.00	0.0033
1895.00	0.0020
1906.00	0.0035
1917.00	0.0037
1928.00	0.0033
1939.00	0.0030
1950.00	0.0031
1961.00	0.0034
1972.00	0.0030
1983.00	0.0029
1994.00	0.0037
2005.00	0.0035
2016.00	0.0027
2027.00	0.0031
2038.00	0.0037
2049.00	0.0024
2060.00	0.0033
2071.00	0.0030
2082.00	0.0031
2093.00	0.0023
2104.00	0.0024
2115.00	0.0030
2126.00	0.0028
2137.00	0.0032
2148.00	0.0034
2159.00	0.0029
2170.00	0.0028
2181.00	0.0039
2192.00	0.0038
2203.00	0.0047
2214.00	0.0045
2225.00	0.0035
2236.00	0.0043
2247.00	0.0051
2258.00	0.0050
2269.00	0.0044
2280.00	0.0038
2291.00	0.0030
2302.00	0.0031
2313.00	0.0027
2324.00	0.0031
2335.00	0.0031
2346.00	0.0033
2357.00	0.0034
2368.00	0.0024
2379.00	0.0030
2390.00	0.0031
2401.00	0.0029
2412.00	0.0032
2423.00	0.0025
2434.00	0.0030
2445.00	0.0026
2456.00	0.0031
2467.00	0.0021
2478.00	0.0033
2489.00	0.0037
2500.00	0.0032
2511.00	0.0045
2522.00	0.0050
2533.00	0.0042
2544.00	0.0055
2555.00	0.0038
2566.00	0.0051
2577.00	0.0054
2588.00	0.0052
2599.00	0.0032
2610.00	0.0054
2621.00	0.0058
2632.00	0.0068
2643.00	0.0078
2654.00	0.0058
2665.00	0.0070
2676.00	0.0224
2687.00	0.0350
2698.00	0.0795
2709.00	0.1127
2720.00	0.1184
2731.00	0.1107
2742.00	0.0933
2753.00	0.0818
2764.00	0.0660
2775.00	0.0529
2786.00	0.0424
2797.00	0.0345
2808.00	0.0266
2819.00	0.0202
2830.00	0.0171
2841.00	0.0132
2852.00	0.0112
2863.00	0.0100
2874.00	0.0084
2885.00	0.0070
2896.00	0.0063
2907.00	0.0054
2918.00	0.0052
2929.00	0.0041
2940.00	0.0041
2951.00	0.0043
2962.00	0.0031
2973.00	0.0044
2984.00	0.0039
2995.00	0.0034
3006.00	0.0115
3017.00	0.0127
3028.00	0.0125
3039.00	0.0127
3050.00	0.0125
3061.00	0.0134
3072.00	0.0135
3083.00	0.0137
3094.00	0.0132
3105.00	0.0130
3116.00	0.0127
3127.00	0.0119
3138.00	0.0113
3149.00	0.0104
3160.00	0.0111
3171.00	0.0114
3182.00	0.0117
3193.00	0.0116
3204.00	0.0128
3215.00	0.0126
3226.00	0.0127
3237.00	0.0135
3248.00	0.0110
3259.00	0.0119
3270.00	0.0067
3281.00	0.0075
3292.00	0.0197
3300.00	0.0420