File: CF_UV_VIS_20mM.txt
"20-30mM-CF20mM - RawData"
"Wavelength nm."	"Abs."
300.00	0.1107
311.00	0.1229
322.00	0.1437
333.00	0.1655
344.00	0.1914
355.00	0.2067
366.00	0.2165
377.00	0.2245
388.00	0.2362
399.00	0.2468
410.00	0.2605
421.00	0.2653
432.00	0.2585
443.00	0.2548
454.00	0.2563
465.00	0.2644
476.00	0.2737
487.00	0.2797
498.00	0.2828
509.00	0.2826
520.00	0.2761
531.00	0.2668
542.00	0.2553
553.00	0.2453
564.00	0.2351
575.00	0.2241
586.00	0.2116
597.00	0.1975
608.00	0.1844
619.00	0.1739
630.00	0.1668
641.00	0.1622
652.00	0.1611
663.00	0.1609
674.00	0.1634
685.00	0.1650
696.00	0.1661
707.00	0.1667
718.00	0.1690
729.00	0.1687
740.00	0.1721
751.00	0.1758
762.00	0.1788
773.00	0.1797
784.00	0.1749
795.00	0.1693
806.00	0.1595
817.00	0.1546
828.00	0.1535
839.00	0.1558
850.00	0.1604
861.00	0.1612
872.00	0.1608
883.00	0.1565
894.00	0.1468
905.00	0.1372
916.00	0.1281
927.00	0.1198
938.00	0.1123
949.00	0.1053
960.00	0.0983
971.00	0.0920
982.00	0.0860
993.00	0.0802
1004.00	0.0744
1015.00	0.0691
1026.00	0.0646
1037.00	0.0603
1048.00	0.0565
1059.00	0.0540
1070.00	0.0505
1081.00	0.0473
1092.00	0.0459
1103.00	0.0438
1114.00	0.0426
1125.00	0.0414
1136.00	0.0407
1147.00	0.0398
1158.00	0.0396
1169.00	0.0392
1180.00	0.0392
1191.00	0.0395
1202.00	0.0395
1213.00	0.0402
1224.00	0.0407
1235.00	0.0409
1246.00	0.0416
1257.00	0.0419
1268.00	0.0423
1279.00	0.0438
1290.00	0.0447
1301.00	0.0458
1312.00	0.0469
1323.00	0.0479
1334.00	0.0493
1345.00	0.0505
1356.00	0.0526
1367.00	0.0543
1378.00	0.0561
1389.00	0.0582
1400.00	0.0601
1411.00	0.0624
1422.00	0.0641
1433.00	0.0668
1444.00	0.0684
1455.00	0.0699
1466.00	0.0728
1477.00	0.0746
1488.00	0.0771
1499.00	0.0795
1510.00	0.0825
1521.00	0.0850
1532.00	0.0875
1543.00	0.0898
1554.00	0.0927
1565.00	0.0951
1576.00	0.0974
1587.00	0.0999
1598.00	0.1030
1609.00	0.1056
1620.00	0.1081
1631.00	0.1105
1642.00	0.1121
1653.00	0.1129
1664.00	0.1138
1675.00	0.1159
1686.00	0.1187
1697.00	0.1204
1708.00	0.1219
1719.00	0.1243
1730.00	0.1260
1741.00	0.1279
1752.00	0.1298
1763.00	0.1315
1774.00	0.1334
1785.00	0.1350
1796.00	0.1365
1807.00	0.1380
1818.00	0.1389
1829.00	0.1407
1840.00	0.1416
1851.00	0.1414
1862.00	0.1445
1873.00	0.1446
1884.00	0.1455
1895.00	0.1467
1906.00	0.1485
1917.00	0.1481
1928.00	0.1500
1939.00	0.1504
1950.00	0.1505
1961.00	0.1515
1972.00	0.1521
1983.00	0.1529
1994.00	0.1527
2005.00	0.1538
2016.00	0.1538
2027.00	0.1543
2038.00	0.1548
2049.00	0.1550
2060.00	0.1556
2071.00	0.1556
2082.00	0.1562
2093.00	0.1556
2104.00	0.1565
2115.00	0.1562
2126.00	0.1560
2137.00	0.1564
2148.00	0.1565
2159.00	0.1556
2170.00	0.1561
2181.00	0.1560
2192.00	0.1550
2203.00	0.1539
2214.00	0.1532
2225.00	0.1529
2236.00	0.1530
2247.00	0.1529
2258.00	0.1533
2269.00	0.1531
2280.00	0.1531
2291.00	0.1534
2302.00	0.1527
2313.00	0.1524
2324.00	0.1525
2335.00	0.1525
2346.00	0.1515
2357.00	0.1510
2368.00	0.1507
2379.00	0.1507
2390.00	0.1500
2401.00	0.1495
2412.00	0.1488
2423.00	0.1480
2434.00	0.1473
2445.00	0.1477
2456.00	0.1465
2467.00	0.1462
2478.00	0.1462
2489.00	0.1450
2500.00	0.1439
2511.00	0.1442
2522.00	0.1435
2533.00	0.1418
2544.00	0.1408
2555.00	0.1389
2566.00	0.1411
2577.00	0.1414
2588.00	0.1383
2599.00	0.1385
2610.00	0.1354
2621.00	0.1368
2632.00	0.1369
2643.00	0.1353
2654.00	0.1339
2665.00	0.1327
2676.00	0.1332
2687.00	0.1288
2698.00	0.1406
2709.00	0.1741
2720.00	0.1972
2731.00	0.1854
2742.00	0.1603
2753.00	0.1341
2764.00	0.1170
2775.00	0.1119
2786.00	0.1065
2797.00	0.1076
2808.00	0.1073
2819.00	0.1099
2830.00	0.1128
2841.00	0.1154
2852.00	0.1173
2863.00	0.1185
2874.00	0.1193
2885.00	0.1199
2896.00	0.1196
2907.00	0.1197
2918.00	0.1201
2929.00	0.1194
2940.00	0.1191
2951.00	0.1192
2962.00	0.1187
2973.00	0.1186
2984.00	0.1172
2995.00	0.1184
3006.00	0.1229
3017.00	0.1233
3028.00	0.1230
3039.00	0.1222
3050.00	0.1215
3061.00	0.1219
3072.00	0.1208
3083.00	0.1207
3094.00	0.1203
3105.00	0.1195
3116.00	0.1185
3127.00	0.1171
3138.00	0.1166
3149.00	0.1161
3160.00	0.1150
3171.00	0.1153
3182.00	0.1156
3193.00	0.1153
3204.00	0.1141
3215.00	0.1122
3226.00	0.1113
3237.00	0.1114
3248.00	0.1105
3259.00	0.1123
3270.00	0.1052
3281.00	0.1016
3292.00	0.1117
3300.00	0.1236