File: CF_UV_VIS_30mM.txt
"20-30mM-1_CF30mM - RawData"
"Wavelength nm."	"Abs."
300.00	0.1286
311.00	0.1398
322.00	0.1534
333.00	0.1627
344.00	0.1769
355.00	0.1881
366.00	0.1983
377.00	0.2126
388.00	0.2328
399.00	0.2520
410.00	0.2719
421.00	0.2806
432.00	0.2751
443.00	0.2739
454.00	0.2770
465.00	0.2861
476.00	0.2948
487.00	0.3007
498.00	0.3036
509.00	0.3031
520.00	0.2971
531.00	0.2883
542.00	0.2769
553.00	0.2666
564.00	0.2554
575.00	0.2437
586.00	0.2300
597.00	0.2152
608.00	0.2008
619.00	0.1905
630.00	0.1832
641.00	0.1781
652.00	0.1765
663.00	0.1776
674.00	0.1796
685.00	0.1806
696.00	0.1816
707.00	0.1826
718.00	0.1829
729.00	0.1831
740.00	0.1869
751.00	0.1920
762.00	0.1958
773.00	0.1962
784.00	0.1909
795.00	0.1834
806.00	0.1693
817.00	0.1623
828.00	0.1616
839.00	0.1645
850.00	0.1709
861.00	0.1732
872.00	0.1729
883.00	0.1676
894.00	0.1563
905.00	0.1450
916.00	0.1351
927.00	0.1257
938.00	0.1180
949.00	0.1102
960.00	0.1030
971.00	0.0960
982.00	0.0899
993.00	0.0839
1004.00	0.0781
1015.00	0.0726
1026.00	0.0681
1037.00	0.0635
1048.00	0.0596
1059.00	0.0564
1070.00	0.0531
1081.00	0.0503
1092.00	0.0483
1103.00	0.0470
1114.00	0.0450
1125.00	0.0437
1136.00	0.0429
1147.00	0.0425
1158.00	0.0420
1169.00	0.0416
1180.00	0.0419
1191.00	0.0413
1202.00	0.0416
1213.00	0.0419
1224.00	0.0426
1235.00	0.0430
1246.00	0.0436
1257.00	0.0438
1268.00	0.0448
1279.00	0.0457
1290.00	0.0465
1301.00	0.0479
1312.00	0.0489
1323.00	0.0497
1334.00	0.0511
1345.00	0.0522
1356.00	0.0536
1367.00	0.0554
1378.00	0.0577
1389.00	0.0595
1400.00	0.0615
1411.00	0.0638
1422.00	0.0656
1433.00	0.0679
1444.00	0.0689
1455.00	0.0716
1466.00	0.0737
1477.00	0.0761
1488.00	0.0788
1499.00	0.0810
1510.00	0.0840
1521.00	0.0858
1532.00	0.0885
1543.00	0.0911
1554.00	0.0937
1565.00	0.0963
1576.00	0.0983
1587.00	0.1018
1598.00	0.1042
1609.00	0.1074
1620.00	0.1097
1631.00	0.1122
1642.00	0.1133
1653.00	0.1122
1664.00	0.1130
1675.00	0.1151
1686.00	0.1168
1697.00	0.1186
1708.00	0.1207
1719.00	0.1231
1730.00	0.1250
1741.00	0.1268
1752.00	0.1287
1763.00	0.1299
1774.00	0.1320
1785.00	0.1344
1796.00	0.1353
1807.00	0.1373
1818.00	0.1376
1829.00	0.1400
1840.00	0.1414
1851.00	0.1411
1862.00	0.1442
1873.00	0.1440
1884.00	0.1446
1895.00	0.1460
1906.00	0.1486
1917.00	0.1480
1928.00	0.1499
1939.00	0.1498
1950.00	0.1500
1961.00	0.1511
1972.00	0.1517
1983.00	0.1523
1994.00	0.1527
2005.00	0.1535
2016.00	0.1536
2027.00	0.1534
2038.00	0.1548
2049.00	0.1546
2060.00	0.1558
2071.00	0.1558
2082.00	0.1563
2093.00	0.1564
2104.00	0.1566
2115.00	0.1564
2126.00	0.1566
2137.00	0.1570
2148.00	0.1563
2159.00	0.1561
2170.00	0.1560
2181.00	0.1563
2192.00	0.1555
2203.00	0.1545
2214.00	0.1539
2225.00	0.1541
2236.00	0.1535
2247.00	0.1531
2258.00	0.1541
2269.00	0.1538
2280.00	0.1534
2291.00	0.1536
2302.00	0.1533
2313.00	0.1526
2324.00	0.1530
2335.00	0.1524
2346.00	0.1519
2357.00	0.1518
2368.00	0.1507
2379.00	0.1508
2390.00	0.1498
2401.00	0.1486
2412.00	0.1489
2423.00	0.1481
2434.00	0.1478
2445.00	0.1472
2456.00	0.1465
2467.00	0.1454
2478.00	0.1455
2489.00	0.1448
2500.00	0.1439
2511.00	0.1446
2522.00	0.1445
2533.00	0.1429
2544.00	0.1423
2555.00	0.1402
2566.00	0.1419
2577.00	0.1420
2588.00	0.1393
2599.00	0.1386
2610.00	0.1369
2621.00	0.1375
2632.00	0.1371
2643.00	0.1357
2654.00	0.1357
2665.00	0.1338
2676.00	0.1330
2687.00	0.1307
2698.00	0.1437
2709.00	0.1829
2720.00	0.2018
2731.00	0.1915
2742.00	0.1707
2753.00	0.1434
2764.00	0.1213
2775.00	0.1114
2786.00	0.1062
2797.00	0.1057
2808.00	0.1067
2819.00	0.1093
2830.00	0.1126
2841.00	0.1152
2852.00	0.1172
2863.00	0.1182
2874.00	0.1194
2885.00	0.1196
2896.00	0.1198
2907.00	0.1196
2918.00	0.1202
2929.00	0.1201
2940.00	0.1192
2951.00	0.1189
2962.00	0.1190
2973.00	0.1193
2984.00	0.1182
2995.00	0.1187
3006.00	0.1217
3017.00	0.1218
3028.00	0.1211
3039.00	0.1203
3050.00	0.1194
3061.00	0.1200
3072.00	0.1197
3083.00	0.1184
3094.00	0.1178
3105.00	0.1176
3116.00	0.1176
3127.00	0.1164
3138.00	0.1154
3149.00	0.1149
3160.00	0.1132
3171.00	0.1132
3182.00	0.1130
3193.00	0.1129
3204.00	0.1123
3215.00	0.1093
3226.00	0.1112
3237.00	0.1103
3248.00	0.1087
3259.00	0.1081
3270.00	0.1050
3281.00	0.1025
3292.00	0.1070
3300.00	0.1101