File: THF_UV_VIS_30mM.txt
"20-30mM-1_THF30mM - RawData"
"Wavelength nm."	"Abs."
300.00	0.3006
311.00	0.3103
322.00	0.3346
333.00	0.3630
344.00	0.4018
355.00	0.4407
366.00	0.4891
377.00	0.5591
388.00	0.6597
399.00	0.7399
410.00	0.8158
421.00	0.8236
432.00	0.7685
443.00	0.7520
454.00	0.7710
465.00	0.8093
476.00	0.8419
487.00	0.8675
498.00	0.8811
509.00	0.8825
520.00	0.8675
531.00	0.8436
542.00	0.8121
553.00	0.7774
564.00	0.7401
575.00	0.6976
586.00	0.6506
597.00	0.6011
608.00	0.5562
619.00	0.5229
630.00	0.5033
641.00	0.4946
652.00	0.4948
663.00	0.5017
674.00	0.5121
685.00	0.5238
696.00	0.5282
707.00	0.5306
718.00	0.5329
729.00	0.5407
740.00	0.5599
751.00	0.5808
762.00	0.5926
773.00	0.5860
784.00	0.5561
795.00	0.5302
806.00	0.5032
817.00	0.4896
828.00	0.4922
839.00	0.5099
850.00	0.5364
861.00	0.5378
872.00	0.5258
883.00	0.4883
894.00	0.4354
905.00	0.3901
916.00	0.3528
927.00	0.3200
938.00	0.2929
949.00	0.2680
960.00	0.2462
971.00	0.2266
982.00	0.2085
993.00	0.1920
1004.00	0.1774
1015.00	0.1641
1026.00	0.1525
1037.00	0.1420
1048.00	0.1338
1059.00	0.1273
1070.00	0.1204
1081.00	0.1153
1092.00	0.1117
1103.00	0.1090
1114.00	0.1069
1125.00	0.1052
1136.00	0.1045
1147.00	0.1046
1158.00	0.1042
1169.00	0.1046
1180.00	0.1053
1191.00	0.1063
1202.00	0.1080
1213.00	0.1098
1224.00	0.1109
1235.00	0.1139
1246.00	0.1164
1257.00	0.1189
1268.00	0.1217
1279.00	0.1250
1290.00	0.1282
1301.00	0.1324
1312.00	0.1365
1323.00	0.1403
1334.00	0.1448
1345.00	0.1498
1356.00	0.1554
1367.00	0.1621
1378.00	0.1684
1389.00	0.1747
1400.00	0.1824
1411.00	0.1896
1422.00	0.1963
1433.00	0.2048
1444.00	0.2122
1455.00	0.2193
1466.00	0.2282
1477.00	0.2372
1488.00	0.2453
1499.00	0.2540
1510.00	0.2638
1521.00	0.2725
1532.00	0.2820
1543.00	0.2907
1554.00	0.3005
1565.00	0.3097
1576.00	0.3191
1587.00	0.3289
1598.00	0.3383
1609.00	0.3470
1620.00	0.3560
1631.00	0.3640
1642.00	0.3702
1653.00	0.3721
1664.00	0.3763
1675.00	0.3836
1686.00	0.3897
1697.00	0.3962
1708.00	0.4025
1719.00	0.4090
1730.00	0.4154
1741.00	0.4210
1752.00	0.4264
1763.00	0.4314
1774.00	0.4366
1785.00	0.4426
1796.00	0.4464
1807.00	0.4513
1818.00	0.4547
1829.00	0.4587
1840.00	0.4624
1851.00	0.4641
1862.00	0.4684
1873.00	0.4714
1884.00	0.4730
1895.00	0.4746
1906.00	0.4799
1917.00	0.4800
1928.00	0.4823
1939.00	0.4838
1950.00	0.4851
1961.00	0.4867
1972.00	0.4880
1983.00	0.4883
1994.00	0.4898
2005.00	0.4906
2016.00	0.4912
2027.00	0.4917
2038.00	0.4923
2049.00	0.4931
2060.00	0.4950
2071.00	0.4956
2082.00	0.4949
2093.00	0.4947
2104.00	0.4948
2115.00	0.4942
2126.00	0.4943
2137.00	0.4944
2148.00	0.4934
2159.00	0.4935
2170.00	0.4920
2181.00	0.4920
2192.00	0.4903
2203.00	0.4916
2214.00	0.4893
2225.00	0.4884
2236.00	0.4871
2247.00	0.4859
2258.00	0.4855
2269.00	0.4843
2280.00	0.4822
2291.00	0.4819
2302.00	0.4804
2313.00	0.4792
2324.00	0.4782
2335.00	0.4770
2346.00	0.4751
2357.00	0.4740
2368.00	0.4725
2379.00	0.4714
2390.00	0.4694
2401.00	0.4675
2412.00	0.4669
2423.00	0.4650
2434.00	0.4645
2445.00	0.4618
2456.00	0.4620
2467.00	0.4595
2478.00	0.4582
2489.00	0.4569
2500.00	0.4533
2511.00	0.4490
2522.00	0.4481
2533.00	0.4474
2544.00	0.4456
2555.00	0.4435
2566.00	0.4427
2577.00	0.4403
2588.00	0.4383
2599.00	0.4351
2610.00	0.4374
2621.00	0.4332
2632.00	0.4336
2643.00	0.4314
2654.00	0.4272
2665.00	0.4262
2676.00	0.4380
2687.00	0.4438
2698.00	0.4749
2709.00	0.5164
2720.00	0.5547
2731.00	0.5479
2742.00	0.5174
2753.00	0.4778
2764.00	0.4583
2775.00	0.4328
2786.00	0.4199
2797.00	0.4125
2808.00	0.4055
2819.00	0.4017
2830.00	0.3999
2841.00	0.3981
2852.00	0.3970
2863.00	0.3957
2874.00	0.3945
2885.00	0.3928
2896.00	0.3912
2907.00	0.3896
2918.00	0.3876
2929.00	0.3872
2940.00	0.3859
2951.00	0.3835
2962.00	0.3835
2973.00	0.3823
2984.00	0.3804
2995.00	0.3797
3006.00	0.3823
3017.00	0.3814
3028.00	0.3806
3039.00	0.3794
3050.00	0.3767
3061.00	0.3761
3072.00	0.3752
3083.00	0.3736
3094.00	0.3718
3105.00	0.3704
3116.00	0.3700
3127.00	0.3670
3138.00	0.3657
3149.00	0.3648
3160.00	0.3616
3171.00	0.3606
3182.00	0.3590
3193.00	0.3593
3204.00	0.3561
3215.00	0.3510
3226.00	0.3517
3237.00	0.3539
3248.00	0.3500
3259.00	0.3532
3270.00	0.3395
3281.00	0.3407
3292.00	0.3497
3300.00	0.3657