File: THF_UV_VIS_20mM.txt
"20-30mM-1_THF20mM - RawData"
"Wavelength nm."	"Abs."
300.00	0.2890
311.00	0.2976
322.00	0.3262
333.00	0.3600
344.00	0.4011
355.00	0.4400
366.00	0.4845
377.00	0.5495
388.00	0.6455
399.00	0.7289
410.00	0.8115
421.00	0.8334
432.00	0.7931
443.00	0.7951
454.00	0.8332
465.00	0.8853
476.00	0.9318
487.00	0.9639
498.00	0.9778
509.00	0.9750
520.00	0.9481
531.00	0.9103
542.00	0.8685
553.00	0.8244
564.00	0.7785
575.00	0.7294
586.00	0.6755
597.00	0.6196
608.00	0.5679
619.00	0.5295
630.00	0.5068
641.00	0.4964
652.00	0.4964
663.00	0.5020
674.00	0.5135
685.00	0.5250
696.00	0.5305
707.00	0.5342
718.00	0.5372
729.00	0.5444
740.00	0.5610
751.00	0.5796
762.00	0.5901
773.00	0.5842
784.00	0.5560
795.00	0.5288
806.00	0.4953
817.00	0.4801
828.00	0.4813
839.00	0.4959
850.00	0.5179
861.00	0.5183
872.00	0.5070
883.00	0.4719
894.00	0.4224
905.00	0.3798
916.00	0.3432
927.00	0.3121
938.00	0.2850
949.00	0.2608
960.00	0.2392
971.00	0.2190
982.00	0.2011
993.00	0.1848
1004.00	0.1691
1015.00	0.1560
1026.00	0.1443
1037.00	0.1340
1048.00	0.1254
1059.00	0.1176
1070.00	0.1118
1081.00	0.1067
1092.00	0.1030
1103.00	0.1000
1114.00	0.0979
1125.00	0.0963
1136.00	0.0955
1147.00	0.0949
1158.00	0.0952
1169.00	0.0956
1180.00	0.0964
1191.00	0.0980
1202.00	0.0993
1213.00	0.1011
1224.00	0.1031
1235.00	0.1060
1246.00	0.1081
1257.00	0.1106
1268.00	0.1139
1279.00	0.1172
1290.00	0.1204
1301.00	0.1245
1312.00	0.1287
1323.00	0.1328
1334.00	0.1377
1345.00	0.1432
1356.00	0.1490
1367.00	0.1554
1378.00	0.1627
1389.00	0.1696
1400.00	0.1765
1411.00	0.1844
1422.00	0.1918
1433.00	0.1988
1444.00	0.2075
1455.00	0.2162
1466.00	0.2246
1477.00	0.2333
1488.00	0.2420
1499.00	0.2515
1510.00	0.2616
1521.00	0.2706
1532.00	0.2804
1543.00	0.2899
1554.00	0.3005
1565.00	0.3095
1576.00	0.3189
1587.00	0.3290
1598.00	0.3386
1609.00	0.3476
1620.00	0.3571
1631.00	0.3656
1642.00	0.3726
1653.00	0.3763
1664.00	0.3815
1675.00	0.3892
1686.00	0.3969
1697.00	0.4031
1708.00	0.4097
1719.00	0.4166
1730.00	0.4229
1741.00	0.4289
1752.00	0.4350
1763.00	0.4394
1774.00	0.4455
1785.00	0.4511
1796.00	0.4556
1807.00	0.4607
1818.00	0.4644
1829.00	0.4683
1840.00	0.4725
1851.00	0.4744
1862.00	0.4791
1873.00	0.4821
1884.00	0.4835
1895.00	0.4852
1906.00	0.4915
1917.00	0.4909
1928.00	0.4933
1939.00	0.4950
1950.00	0.4964
1961.00	0.4980
1972.00	0.4992
1983.00	0.5005
1994.00	0.5018
2005.00	0.5025
2016.00	0.5042
2027.00	0.5039
2038.00	0.5046
2049.00	0.5045
2060.00	0.5066
2071.00	0.5069
2082.00	0.5070
2093.00	0.5076
2104.00	0.5060
2115.00	0.5065
2126.00	0.5065
2137.00	0.5057
2148.00	0.5054
2159.00	0.5041
2170.00	0.5041
2181.00	0.5039
2192.00	0.5043
2203.00	0.5048
2214.00	0.5035
2225.00	0.5011
2236.00	0.5010
2247.00	0.4996
2258.00	0.4983
2269.00	0.4969
2280.00	0.4956
2291.00	0.4932
2302.00	0.4924
2313.00	0.4912
2324.00	0.4892
2335.00	0.4886
2346.00	0.4863
2357.00	0.4847
2368.00	0.4830
2379.00	0.4819
2390.00	0.4808
2401.00	0.4792
2412.00	0.4779
2423.00	0.4760
2434.00	0.4737
2445.00	0.4751
2456.00	0.4724
2467.00	0.4703
2478.00	0.4698
2489.00	0.4688
2500.00	0.4668
2511.00	0.4654
2522.00	0.4646
2533.00	0.4618
2544.00	0.4608
2555.00	0.4591
2566.00	0.4604
2577.00	0.4633
2588.00	0.4543
2599.00	0.4578
2610.00	0.4519
2621.00	0.4562
2632.00	0.4537
2643.00	0.4501
2654.00	0.4520
2665.00	0.4512
2676.00	0.4610
2687.00	0.4888
2698.00	0.5715
2709.00	0.6408
2720.00	0.6938
2731.00	0.6778
2742.00	0.6313
2753.00	0.5985
2764.00	0.5616
2775.00	0.5239
2786.00	0.5003
2797.00	0.4807
2808.00	0.4637
2819.00	0.4515
2830.00	0.4422
2841.00	0.4355
2852.00	0.4287
2863.00	0.4241
2874.00	0.4208
2885.00	0.4165
2896.00	0.4128
2907.00	0.4113
2918.00	0.4070
2929.00	0.4057
2940.00	0.4032
2951.00	0.4004
2962.00	0.3997
2973.00	0.3990
2984.00	0.3950
2995.00	0.3943
3006.00	0.3990
3017.00	0.3992
3028.00	0.3977
3039.00	0.3961
3050.00	0.3937
3061.00	0.3933
3072.00	0.3928
3083.00	0.3899
3094.00	0.3880
3105.00	0.3863
3116.00	0.3851
3127.00	0.3829
3138.00	0.3798
3149.00	0.3788
3160.00	0.3769
3171.00	0.3761
3182.00	0.3779
3193.00	0.3757
3204.00	0.3724
3215.00	0.3688
3226.00	0.3714
3237.00	0.3666
3248.00	0.3634
3259.00	0.3659
3270.00	0.3565
3281.00	0.3540
3292.00	0.3589
3300.00	0.3633