File: THF_UV_VIS_2mM.txt
"RawData - P3h-Doped F4tcnq_THF-2mmol"
"Wavelength nm.","Abs."
300.00,
311.00,
322.00,
333.00,
344.00,
355.00,
366.00,
377.00,
388.00,
399.00,
410.00,
421.00,
432.00,
443.00,
454.00,
465.00,
476.00,
487.00,
498.00,
509.00,
520.00,
531.00,
542.00,
553.00,
564.00,
575.00,
586.00,
597.00,
608.00,
619.00,
630.00,
641.00,
652.00,
663.00,
674.00,
685.00,
696.00,
707.00,
718.00,
729.00,
740.00,
751.00,
762.00,
773.00,
784.00,
795.00,
806.00,
817.00,
828.00,
839.00,
850.00,
861.00,
872.00,
883.00,
894.00,
905.00,
916.00,
927.00,
938.00,
949.00,
960.00,
971.00,
982.00,
993.00,
1004.00,0.1254
1015.00,
1026.00,0.1054
1037.00,
1048.00,0.0893
1059.00,
1070.00,0.0773
1081.00,
1092.00,0.0696
1103.00,
1114.00,0.0649
1125.00,
1136.00,0.0623
1147.00,
1158.00,0.0617
1169.00,
1180.00,0.0618
1191.00,
1202.00,0.0630
1213.00,
1224.00,0.0645
1235.00,
1246.00,0.0673
1257.00,
1268.00,0.0703
1279.00,
1290.00,0.0741
1301.00,
1312.00,0.0784
1323.00,
1334.00,0.0846
1345.00,
1356.00,0.0913
1367.00,
1378.00,0.0986
1389.00,
1400.00,0.1064
1411.00,
1422.00,0.1153
1433.00,
1444.00,0.1251
1455.00,
1466.00,0.1366
1477.00,
1488.00,0.1488
1499.00,
1510.00,0.1624
1521.00,
1532.00,0.1767
1543.00,
1554.00,0.1916
1565.00,
1576.00,0.2076
1587.00,
1598.00,0.2234
1609.00,
1620.00,0.2397
1631.00,
1642.00,0.2561
1653.00,
1664.00,0.2753
1675.00,
1686.00,0.2895
1697.00,
1708.00,0.3032
1719.00,
1730.00,0.3161
1741.00,
1752.00,0.3287
1763.00,
1774.00,0.3407
1785.00,
1796.00,0.3515
1807.00,
1818.00,0.3624
1829.00,
1840.00,0.3729
1851.00,
1862.00,0.3810
1873.00,
1884.00,0.3884
1895.00,
1906.00,0.3952
1917.00,
1928.00,0.3986
1939.00,
1950.00,0.4027
1961.00,
1972.00,0.4055
1983.00,
1994.00,0.4077
2005.00,
2016.00,0.4101
2027.00,
2038.00,0.4118
2049.00,
2060.00,0.4150
2071.00,
2082.00,0.4166
2093.00,
2104.00,0.4171
2115.00,
2126.00,0.4164
2137.00,
2148.00,0.4151
2159.00,
2170.00,0.4141
2181.00,
2192.00,0.4137
2203.00,
2214.00,0.4143
2225.00,
2236.00,0.4116
2247.00,
2258.00,0.4085
2269.00,
2280.00,0.4062
2291.00,
2302.00,0.4033
2313.00,
2324.00,0.3999
2335.00,
2346.00,0.3966
2357.00,
2368.00,0.3933
2379.00,
2390.00,0.3905
2401.00,
2412.00,0.3871
2423.00,
2434.00,0.3845
2445.00,
2456.00,0.3822
2467.00,
2478.00,0.3796
2489.00,
2500.00,0.3775
2511.00,
2522.00,0.3777
2533.00,
2544.00,0.3742
2555.00,
2566.00,0.3751
2577.00,
2588.00,0.3712
2599.00,
2610.00,0.3718
2621.00,
2632.00,0.3652
2643.00,
2654.00,0.3588
2665.00,
2676.00,0.3757
2687.00,
2698.00,0.4623
2709.00,
2720.00,0.5216
2731.00,
2742.00,0.4847
2753.00,
2764.00,0.4438
2775.00,
2786.00,0.4087
2797.00,
2808.00,0.3809
2819.00,
2830.00,0.3593
2841.00,
2852.00,0.3469
2863.00,
2874.00,0.3387
2885.00,
2896.00,0.3318
2907.00,
2918.00,0.3272
2929.00,
2940.00,0.3216
2951.00,
2962.00,0.3178
2973.00,
2984.00,0.3144
2995.00,
3006.00,0.3122
3017.00,
3028.00,0.3094
3039.00,
3050.00,0.3062
3061.00,
3072.00,0.3027
3083.00,
3094.00,0.2990
3105.00,
3116.00,0.2965
3127.00,
3138.00,0.2936
3149.00,
3160.00,0.2899
3171.00,
3182.00,0.2862
3193.00,
3204.00,0.2863
3215.00,
3226.00,0.2840
3237.00,
3248.00,0.2776
3259.00,
3270.00,0.2815
3281.00,
3292.00,0.2750
3300.00,0.2769