File: THF_UV_VIS_10mM.txt
"RawData - P3h-Doped F4tcnq_THF-10mmol"
"Wavelength nm.","Abs."
300.00,
311.00,
322.00,
333.00,
344.00,
355.00,
366.00,
377.00,
388.00,
399.00,
410.00,
421.00,
432.00,
443.00,
454.00,
465.00,
476.00,
487.00,
498.00,
509.00,
520.00,
531.00,
542.00,
553.00,
564.00,
575.00,
586.00,
597.00,
608.00,
619.00,
630.00,
641.00,
652.00,
663.00,
674.00,
685.00,
696.00,
707.00,
718.00,
729.00,
740.00,
751.00,
762.00,
773.00,
784.00,
795.00,
806.00,
817.00,
828.00,
839.00,
850.00,
861.00,
872.00,
883.00,
894.00,
905.00,
916.00,
927.00,
938.00,
949.00,
960.00,
971.00,
982.00,
993.00,
1004.00,0.1463
1015.00,
1026.00,0.1233
1037.00,
1048.00,0.1053
1059.00,
1070.00,0.0924
1081.00,
1092.00,0.0844
1103.00,
1114.00,0.0798
1125.00,
1136.00,0.0774
1147.00,
1158.00,0.0771
1169.00,
1180.00,0.0777
1191.00,
1202.00,0.0800
1213.00,
1224.00,0.0829
1235.00,
1246.00,0.0865
1257.00,
1268.00,0.0913
1279.00,
1290.00,0.0968
1301.00,
1312.00,0.1029
1323.00,
1334.00,0.1117
1345.00,
1356.00,0.1202
1367.00,
1378.00,0.1305
1389.00,
1400.00,0.1416
1411.00,
1422.00,0.1541
1433.00,
1444.00,0.1682
1455.00,
1466.00,0.1835
1477.00,
1488.00,0.1995
1499.00,
1510.00,0.2163
1521.00,
1532.00,0.2338
1543.00,
1554.00,0.2518
1565.00,
1576.00,0.2702
1587.00,
1598.00,0.2877
1609.00,
1620.00,0.3054
1631.00,
1642.00,0.3221
1653.00,
1664.00,0.3428
1675.00,
1686.00,0.3562
1697.00,
1708.00,0.3688
1719.00,
1730.00,0.3806
1741.00,
1752.00,0.3915
1763.00,
1774.00,0.4019
1785.00,
1796.00,0.4111
1807.00,
1818.00,0.4205
1829.00,
1840.00,0.4284
1851.00,
1862.00,0.4345
1873.00,
1884.00,0.4416
1895.00,
1906.00,0.4463
1917.00,
1928.00,0.4475
1939.00,
1950.00,0.4501
1961.00,
1972.00,0.4513
1983.00,
1994.00,0.4524
2005.00,
2016.00,0.4534
2027.00,
2038.00,0.4540
2049.00,
2060.00,0.4559
2071.00,
2082.00,0.4566
2093.00,
2104.00,0.4560
2115.00,
2126.00,0.4544
2137.00,
2148.00,0.4522
2159.00,
2170.00,0.4502
2181.00,
2192.00,0.4479
2203.00,
2214.00,0.4464
2225.00,
2236.00,0.4439
2247.00,
2258.00,0.4412
2269.00,
2280.00,0.4395
2291.00,
2302.00,0.4361
2313.00,
2324.00,0.4324
2335.00,
2346.00,0.4290
2357.00,
2368.00,0.4261
2379.00,
2390.00,0.4220
2401.00,
2412.00,0.4188
2423.00,
2434.00,0.4159
2445.00,
2456.00,0.4129
2467.00,
2478.00,0.4102
2489.00,
2500.00,0.4075
2511.00,
2522.00,0.4064
2533.00,
2544.00,0.4028
2555.00,
2566.00,0.4003
2577.00,
2588.00,0.3978
2599.00,
2610.00,0.3975
2621.00,
2632.00,0.3876
2643.00,
2654.00,0.3825
2665.00,
2676.00,0.3906
2687.00,
2698.00,0.4213
2709.00,
2720.00,0.4314
2731.00,
2742.00,0.4064
2753.00,
2764.00,0.3921
2775.00,
2786.00,0.3774
2797.00,
2808.00,0.3674
2819.00,
2830.00,0.3625
2841.00,
2852.00,0.3601
2863.00,
2874.00,0.3561
2885.00,
2896.00,0.3524
2907.00,
2918.00,0.3491
2929.00,
2940.00,0.3452
2951.00,
2962.00,0.3415
2973.00,
2984.00,0.3383
2995.00,
3006.00,0.3398
3017.00,
3028.00,0.3374
3039.00,
3050.00,0.3349
3061.00,
3072.00,0.3305
3083.00,
3094.00,0.3279
3105.00,
3116.00,0.3252
3127.00,
3138.00,0.3223
3149.00,
3160.00,0.3192
3171.00,
3182.00,0.3160
3193.00,
3204.00,0.3122
3215.00,
3226.00,0.3123
3237.00,
3248.00,0.3080
3259.00,
3270.00,0.3067
3281.00,
3292.00,0.3072
3300.00,0.3055