File: THF_UV_VIS_0mM.txt
"20-30mM-1_THF0mM - RawData"
"Wavelength nm."	"Abs."
300.00	0.1900
311.00	0.1770
322.00	0.1793
333.00	0.1899
344.00	0.2136
355.00	0.2396
366.00	0.2692
377.00	0.3055
388.00	0.3483
399.00	0.3993
410.00	0.4577
421.00	0.5261
432.00	0.6026
443.00	0.6912
454.00	0.7861
465.00	0.8822
476.00	0.9721
487.00	1.0375
498.00	1.0815
509.00	1.1080
520.00	1.1075
531.00	1.0808
542.00	1.0512
553.00	1.0095
564.00	0.9188
575.00	0.7948
586.00	0.6967
597.00	0.6339
608.00	0.5448
619.00	0.4004
630.00	0.2526
641.00	0.1481
652.00	0.0908
663.00	0.0618
674.00	0.0480
685.00	0.0367
696.00	0.0305
707.00	0.0261
718.00	0.0228
729.00	0.0196
740.00	0.0179
751.00	0.0175
762.00	0.0168
773.00	0.0157
784.00	0.0156
795.00	0.0140
806.00	0.0088
817.00	0.0072
828.00	0.0077
839.00	0.0096
850.00	0.0107
861.00	0.0117
872.00	0.0119
883.00	0.0136
894.00	0.0145
905.00	0.0154
916.00	0.0164
927.00	0.0174
938.00	0.0186
949.00	0.0195
960.00	0.0207
971.00	0.0218
982.00	0.0226
993.00	0.0239
1004.00	0.0236
1015.00	0.0250
1026.00	0.0262
1037.00	0.0266
1048.00	0.0275
1059.00	0.0289
1070.00	0.0290
1081.00	0.0293
1092.00	0.0302
1103.00	0.0307
1114.00	0.0307
1125.00	0.0312
1136.00	0.0319
1147.00	0.0324
1158.00	0.0328
1169.00	0.0335
1180.00	0.0339
1191.00	0.0344
1202.00	0.0347
1213.00	0.0349
1224.00	0.0361
1235.00	0.0366
1246.00	0.0364
1257.00	0.0364
1268.00	0.0366
1279.00	0.0365
1290.00	0.0363
1301.00	0.0367
1312.00	0.0365
1323.00	0.0364
1334.00	0.0365
1345.00	0.0370
1356.00	0.0370
1367.00	0.0372
1378.00	0.0381
1389.00	0.0380
1400.00	0.0381
1411.00	0.0373
1422.00	0.0379
1433.00	0.0366
1444.00	0.0372
1455.00	0.0373
1466.00	0.0372
1477.00	0.0360
1488.00	0.0369
1499.00	0.0370
1510.00	0.0374
1521.00	0.0371
1532.00	0.0369
1543.00	0.0368
1554.00	0.0365
1565.00	0.0369
1576.00	0.0366
1587.00	0.0363
1598.00	0.0370
1609.00	0.0372
1620.00	0.0370
1631.00	0.0374
1642.00	0.0360
1653.00	0.0322
1664.00	0.0307
1675.00	0.0300
1686.00	0.0301
1697.00	0.0292
1708.00	0.0290
1719.00	0.0298
1730.00	0.0303
1741.00	0.0299
1752.00	0.0298
1763.00	0.0296
1774.00	0.0301
1785.00	0.0300
1796.00	0.0299
1807.00	0.0300
1818.00	0.0283
1829.00	0.0292
1840.00	0.0299
1851.00	0.0276
1862.00	0.0285
1873.00	0.0293
1884.00	0.0290
1895.00	0.0281
1906.00	0.0291
1917.00	0.0298
1928.00	0.0288
1939.00	0.0286
1950.00	0.0285
1961.00	0.0285
1972.00	0.0283
1983.00	0.0280
1994.00	0.0285
2005.00	0.0282
2016.00	0.0279
2027.00	0.0278
2038.00	0.0281
2049.00	0.0272
2060.00	0.0278
2071.00	0.0277
2082.00	0.0274
2093.00	0.0272
2104.00	0.0263
2115.00	0.0268
2126.00	0.0266
2137.00	0.0266
2148.00	0.0273
2159.00	0.0261
2170.00	0.0264
2181.00	0.0268
2192.00	0.0273
2203.00	0.0289
2214.00	0.0278
2225.00	0.0265
2236.00	0.0275
2247.00	0.0281
2258.00	0.0283
2269.00	0.0269
2280.00	0.0262
2291.00	0.0255
2302.00	0.0252
2313.00	0.0250
2324.00	0.0255
2335.00	0.0248
2346.00	0.0252
2357.00	0.0247
2368.00	0.0239
2379.00	0.0252
2390.00	0.0244
2401.00	0.0246
2412.00	0.0244
2423.00	0.0236
2434.00	0.0238
2445.00	0.0246
2456.00	0.0243
2467.00	0.0237
2478.00	0.0238
2489.00	0.0236
2500.00	0.0235
2511.00	0.0250
2522.00	0.0255
2533.00	0.0254
2544.00	0.0260
2555.00	0.0233
2566.00	0.0273
2577.00	0.0250
2588.00	0.0254
2599.00	0.0249
2610.00	0.0262
2621.00	0.0255
2632.00	0.0263
2643.00	0.0266
2654.00	0.0252
2665.00	0.0279
2676.00	0.0438
2687.00	0.0635
2698.00	0.1098
2709.00	0.1488
2720.00	0.1549
2731.00	0.1405
2742.00	0.1263
2753.00	0.1150
2764.00	0.0963
2775.00	0.0830
2786.00	0.0696
2797.00	0.0611
2808.00	0.0515
2819.00	0.0427
2830.00	0.0394
2841.00	0.0345
2852.00	0.0311
2863.00	0.0290
2874.00	0.0274
2885.00	0.0260
2896.00	0.0245
2907.00	0.0240
2918.00	0.0232
2929.00	0.0221
2940.00	0.0213
2951.00	0.0214
2962.00	0.0210
2973.00	0.0209
2984.00	0.0209
2995.00	0.0209
3006.00	0.0228
3017.00	0.0225
3028.00	0.0222
3039.00	0.0222
3050.00	0.0225
3061.00	0.0229
3072.00	0.0223
3083.00	0.0216
3094.00	0.0220
3105.00	0.0212
3116.00	0.0218
3127.00	0.0209
3138.00	0.0208
3149.00	0.0211
3160.00	0.0203
3171.00	0.0209
3182.00	0.0221
3193.00	0.0210
3204.00	0.0203
3215.00	0.0211
3226.00	0.0222
3237.00	0.0215
3248.00	0.0181
3259.00	0.0218
3270.00	0.0181
3281.00	0.0164
3292.00	0.0217
3300.00	0.0262