File: Tol_UV_VIS_0mM.txt
"20-30mM-1_Toluene0mM - RawData"
"Wavelength nm."	"Abs."
300.00	0.1095
311.00	0.1021
322.00	0.1029
333.00	0.1071
344.00	0.1198
355.00	0.1336
366.00	0.1478
377.00	0.1660
388.00	0.1873
399.00	0.2130
410.00	0.2431
421.00	0.2796
432.00	0.3222
443.00	0.3726
454.00	0.4313
465.00	0.4937
476.00	0.5502
487.00	0.6031
498.00	0.6428
509.00	0.6714
520.00	0.6762
531.00	0.6595
542.00	0.6370
553.00	0.6058
564.00	0.5428
575.00	0.4625
586.00	0.4021
597.00	0.3652
608.00	0.3157
619.00	0.2408
630.00	0.1710
641.00	0.1264
652.00	0.1052
663.00	0.0941
674.00	0.0891
685.00	0.0850
696.00	0.0821
707.00	0.0811
718.00	0.0783
729.00	0.0756
740.00	0.0747
751.00	0.0734
762.00	0.0720
773.00	0.0712
784.00	0.0687
795.00	0.0645
806.00	0.0544
817.00	0.0496
828.00	0.0482
839.00	0.0481
850.00	0.0472
861.00	0.0462
872.00	0.0451
883.00	0.0447
894.00	0.0434
905.00	0.0426
916.00	0.0418
927.00	0.0407
938.00	0.0407
949.00	0.0401
960.00	0.0393
971.00	0.0390
982.00	0.0385
993.00	0.0380
1004.00	0.0372
1015.00	0.0348
1026.00	0.0360
1037.00	0.0351
1048.00	0.0344
1059.00	0.0346
1070.00	0.0338
1081.00	0.0331
1092.00	0.0329
1103.00	0.0326
1114.00	0.0318
1125.00	0.0311
1136.00	0.0307
1147.00	0.0305
1158.00	0.0305
1169.00	0.0300
1180.00	0.0294
1191.00	0.0293
1202.00	0.0285
1213.00	0.0287
1224.00	0.0284
1235.00	0.0277
1246.00	0.0275
1257.00	0.0271
1268.00	0.0269
1279.00	0.0260
1290.00	0.0258
1301.00	0.0255
1312.00	0.0250
1323.00	0.0237
1334.00	0.0237
1345.00	0.0236
1356.00	0.0235
1367.00	0.0239
1378.00	0.0250
1389.00	0.0246
1400.00	0.0244
1411.00	0.0232
1422.00	0.0232
1433.00	0.0225
1444.00	0.0217
1455.00	0.0214
1466.00	0.0213
1477.00	0.0210
1488.00	0.0205
1499.00	0.0202
1510.00	0.0205
1521.00	0.0203
1532.00	0.0199
1543.00	0.0194
1554.00	0.0195
1565.00	0.0194
1576.00	0.0193
1587.00	0.0194
1598.00	0.0191
1609.00	0.0192
1620.00	0.0189
1631.00	0.0197
1642.00	0.0185
1653.00	0.0147
1664.00	0.0133
1675.00	0.0129
1686.00	0.0126
1697.00	0.0119
1708.00	0.0114
1719.00	0.0122
1730.00	0.0127
1741.00	0.0122
1752.00	0.0120
1763.00	0.0120
1774.00	0.0121
1785.00	0.0122
1796.00	0.0125
1807.00	0.0116
1818.00	0.0115
1829.00	0.0124
1840.00	0.0123
1851.00	0.0107
1862.00	0.0118
1873.00	0.0118
1884.00	0.0104
1895.00	0.0106
1906.00	0.0119
1917.00	0.0117
1928.00	0.0118
1939.00	0.0116
1950.00	0.0114
1961.00	0.0115
1972.00	0.0112
1983.00	0.0110
1994.00	0.0113
2005.00	0.0117
2016.00	0.0107
2027.00	0.0108
2038.00	0.0112
2049.00	0.0108
2060.00	0.0107
2071.00	0.0109
2082.00	0.0102
2093.00	0.0096
2104.00	0.0103
2115.00	0.0101
2126.00	0.0105
2137.00	0.0102
2148.00	0.0108
2159.00	0.0100
2170.00	0.0108
2181.00	0.0112
2192.00	0.0125
2203.00	0.0149
2214.00	0.0149
2225.00	0.0132
2236.00	0.0141
2247.00	0.0141
2258.00	0.0136
2269.00	0.0129
2280.00	0.0116
2291.00	0.0108
2302.00	0.0108
2313.00	0.0100
2324.00	0.0111
2335.00	0.0102
2346.00	0.0097
2357.00	0.0097
2368.00	0.0090
2379.00	0.0098
2390.00	0.0096
2401.00	0.0107
2412.00	0.0100
2423.00	0.0090
2434.00	0.0093
2445.00	0.0105
2456.00	0.0098
2467.00	0.0098
2478.00	0.0105
2489.00	0.0101
2500.00	0.0105
2511.00	0.0122
2522.00	0.0127
2533.00	0.0131
2544.00	0.0142
2555.00	0.0123
2566.00	0.0152
2577.00	0.0148
2588.00	0.0153
2599.00	0.0128
2610.00	0.0160
2621.00	0.0161
2632.00	0.0182
2643.00	0.0191
2654.00	0.0189
2665.00	0.0201
2676.00	0.0435
2687.00	0.0791
2698.00	0.1735
2709.00	0.2363
2720.00	0.2683
2731.00	0.2634
2742.00	0.2313
2753.00	0.2090
2764.00	0.1750
2775.00	0.1448
2786.00	0.1203
2797.00	0.1002
2808.00	0.0781
2819.00	0.0623
2830.00	0.0504
2841.00	0.0414
2852.00	0.0344
2863.00	0.0291
2874.00	0.0259
2885.00	0.0228
2896.00	0.0199
2907.00	0.0177
2918.00	0.0161
2929.00	0.0142
2940.00	0.0130
2951.00	0.0123
2962.00	0.0112
2973.00	0.0114
2984.00	0.0109
2995.00	0.0104
3006.00	0.0203
3017.00	0.0217
3028.00	0.0213
3039.00	0.0210
3050.00	0.0208
3061.00	0.0215
3072.00	0.0218
3083.00	0.0220
3094.00	0.0217
3105.00	0.0214
3116.00	0.0208
3127.00	0.0190
3138.00	0.0188
3149.00	0.0184
3160.00	0.0180
3171.00	0.0181
3182.00	0.0197
3193.00	0.0197
3204.00	0.0203
3215.00	0.0203
3226.00	0.0213
3237.00	0.0200
3248.00	0.0177
3259.00	0.0185
3270.00	0.0170
3281.00	0.0168
3292.00	0.0194
3300.00	0.0338