File: Tol_UV_VIS_20mM.txt
"20-30mM-1_Toluene20mM - RawData"
"Wavelength nm."	"Abs."
300.00	0.1367
311.00	0.1407
322.00	0.1579
333.00	0.1774
344.00	0.2028
355.00	0.2223
366.00	0.2395
377.00	0.2630
388.00	0.2983
399.00	0.3313
410.00	0.3655
421.00	0.3781
432.00	0.3638
443.00	0.3665
454.00	0.3856
465.00	0.4095
476.00	0.4267
487.00	0.4436
498.00	0.4503
509.00	0.4489
520.00	0.4356
531.00	0.4189
542.00	0.3975
553.00	0.3768
564.00	0.3562
575.00	0.3336
586.00	0.3089
597.00	0.2838
608.00	0.2607
619.00	0.2437
630.00	0.2329
641.00	0.2274
652.00	0.2262
663.00	0.2273
674.00	0.2328
685.00	0.2369
696.00	0.2395
707.00	0.2412
718.00	0.2434
729.00	0.2452
740.00	0.2523
751.00	0.2602
762.00	0.2665
773.00	0.2676
784.00	0.2592
795.00	0.2488
806.00	0.2342
817.00	0.2270
828.00	0.2278
839.00	0.2343
850.00	0.2448
861.00	0.2488
872.00	0.2493
883.00	0.2404
894.00	0.2235
905.00	0.2071
916.00	0.1931
927.00	0.1796
938.00	0.1683
949.00	0.1576
960.00	0.1478
971.00	0.1386
982.00	0.1297
993.00	0.1210
1004.00	0.1126
1015.00	0.1053
1026.00	0.0982
1037.00	0.0920
1048.00	0.0859
1059.00	0.0813
1070.00	0.0762
1081.00	0.0718
1092.00	0.0684
1103.00	0.0655
1114.00	0.0629
1125.00	0.0610
1136.00	0.0593
1147.00	0.0580
1158.00	0.0570
1169.00	0.0566
1180.00	0.0562
1191.00	0.0562
1202.00	0.0556
1213.00	0.0565
1224.00	0.0572
1235.00	0.0572
1246.00	0.0587
1257.00	0.0592
1268.00	0.0605
1279.00	0.0622
1290.00	0.0632
1301.00	0.0652
1312.00	0.0666
1323.00	0.0682
1334.00	0.0701
1345.00	0.0727
1356.00	0.0749
1367.00	0.0778
1378.00	0.0809
1389.00	0.0841
1400.00	0.0872
1411.00	0.0907
1422.00	0.0941
1433.00	0.0963
1444.00	0.1006
1455.00	0.1043
1466.00	0.1081
1477.00	0.1118
1488.00	0.1158
1499.00	0.1200
1510.00	0.1242
1521.00	0.1288
1532.00	0.1329
1543.00	0.1373
1554.00	0.1411
1565.00	0.1454
1576.00	0.1500
1587.00	0.1545
1598.00	0.1593
1609.00	0.1637
1620.00	0.1679
1631.00	0.1718
1642.00	0.1748
1653.00	0.1750
1664.00	0.1767
1675.00	0.1802
1686.00	0.1838
1697.00	0.1865
1708.00	0.1894
1719.00	0.1931
1730.00	0.1957
1741.00	0.1991
1752.00	0.2022
1763.00	0.2048
1774.00	0.2079
1785.00	0.2112
1796.00	0.2134
1807.00	0.2164
1818.00	0.2174
1829.00	0.2203
1840.00	0.2226
1851.00	0.2226
1862.00	0.2260
1873.00	0.2270
1884.00	0.2284
1895.00	0.2295
1906.00	0.2337
1917.00	0.2323
1928.00	0.2344
1939.00	0.2359
1950.00	0.2359
1961.00	0.2371
1972.00	0.2386
1983.00	0.2389
1994.00	0.2403
2005.00	0.2413
2016.00	0.2416
2027.00	0.2415
2038.00	0.2424
2049.00	0.2430
2060.00	0.2443
2071.00	0.2447
2082.00	0.2450
2093.00	0.2450
2104.00	0.2450
2115.00	0.2454
2126.00	0.2457
2137.00	0.2455
2148.00	0.2453
2159.00	0.2446
2170.00	0.2447
2181.00	0.2447
2192.00	0.2447
2203.00	0.2449
2214.00	0.2434
2225.00	0.2420
2236.00	0.2424
2247.00	0.2419
2258.00	0.2412
2269.00	0.2418
2280.00	0.2406
2291.00	0.2397
2302.00	0.2397
2313.00	0.2387
2324.00	0.2386
2335.00	0.2379
2346.00	0.2367
2357.00	0.2366
2368.00	0.2361
2379.00	0.2347
2390.00	0.2348
2401.00	0.2342
2412.00	0.2333
2423.00	0.2315
2434.00	0.2303
2445.00	0.2307
2456.00	0.2302
2467.00	0.2280
2478.00	0.2280
2489.00	0.2281
2500.00	0.2255
2511.00	0.2248
2522.00	0.2241
2533.00	0.2218
2544.00	0.2213
2555.00	0.2192
2566.00	0.2212
2577.00	0.2218
2588.00	0.2168
2599.00	0.2194
2610.00	0.2148
2621.00	0.2155
2632.00	0.2142
2643.00	0.2124
2654.00	0.2136
2665.00	0.2127
2676.00	0.2160
2687.00	0.2213
2698.00	0.2533
2709.00	0.2987
2720.00	0.3332
2731.00	0.3211
2742.00	0.2868
2753.00	0.2564
2764.00	0.2273
2775.00	0.2141
2786.00	0.2053
2797.00	0.2004
2808.00	0.1960
2819.00	0.1941
2830.00	0.1940
2841.00	0.1935
2852.00	0.1930
2863.00	0.1929
2874.00	0.1924
2885.00	0.1920
2896.00	0.1908
2907.00	0.1911
2918.00	0.1897
2929.00	0.1887
2940.00	0.1874
2951.00	0.1871
2962.00	0.1865
2973.00	0.1862
2984.00	0.1846
2995.00	0.1842
3006.00	0.1891
3017.00	0.1892
3028.00	0.1881
3039.00	0.1873
3050.00	0.1860
3061.00	0.1862
3072.00	0.1861
3083.00	0.1855
3094.00	0.1839
3105.00	0.1829
3116.00	0.1814
3127.00	0.1791
3138.00	0.1783
3149.00	0.1781
3160.00	0.1762
3171.00	0.1751
3182.00	0.1746
3193.00	0.1752
3204.00	0.1743
3215.00	0.1699
3226.00	0.1750
3237.00	0.1732
3248.00	0.1659
3259.00	0.1710
3270.00	0.1640
3281.00	0.1590
3292.00	0.1685
3300.00	0.1902