File: Tol_UV_VIS_30mM.txt
"20-30mM-1_Toluene30mM - RawData"
"Wavelength nm."	"Abs."
300.00	0.2028
311.00	0.2099
322.00	0.2261
333.00	0.2428
344.00	0.2664
355.00	0.2874
366.00	0.3115
377.00	0.3429
388.00	0.3872
399.00	0.4264
410.00	0.4660
421.00	0.4775
432.00	0.4585
443.00	0.4491
454.00	0.4551
465.00	0.4740
476.00	0.4908
487.00	0.5031
498.00	0.5076
509.00	0.5039
520.00	0.4896
531.00	0.4705
542.00	0.4478
553.00	0.4264
564.00	0.4039
575.00	0.3795
586.00	0.3544
597.00	0.3274
608.00	0.3046
619.00	0.2877
630.00	0.2772
641.00	0.2715
652.00	0.2711
663.00	0.2733
674.00	0.2787
685.00	0.2827
696.00	0.2851
707.00	0.2869
718.00	0.2882
729.00	0.2915
740.00	0.2994
751.00	0.3091
762.00	0.3161
773.00	0.3160
784.00	0.3065
795.00	0.2949
806.00	0.2797
817.00	0.2714
828.00	0.2708
839.00	0.2776
850.00	0.2908
861.00	0.2951
872.00	0.2952
883.00	0.2843
894.00	0.2642
905.00	0.2452
916.00	0.2287
927.00	0.2143
938.00	0.2014
949.00	0.1896
960.00	0.1786
971.00	0.1680
982.00	0.1580
993.00	0.1489
1004.00	0.1401
1015.00	0.1320
1026.00	0.1236
1037.00	0.1178
1048.00	0.1106
1059.00	0.1056
1070.00	0.0998
1081.00	0.0951
1092.00	0.0909
1103.00	0.0882
1114.00	0.0851
1125.00	0.0829
1136.00	0.0814
1147.00	0.0800
1158.00	0.0788
1169.00	0.0782
1180.00	0.0778
1191.00	0.0780
1202.00	0.0781
1213.00	0.0786
1224.00	0.0785
1235.00	0.0797
1246.00	0.0805
1257.00	0.0815
1268.00	0.0822
1279.00	0.0842
1290.00	0.0849
1301.00	0.0864
1312.00	0.0890
1323.00	0.0907
1334.00	0.0926
1345.00	0.0948
1356.00	0.0976
1367.00	0.1011
1378.00	0.1045
1389.00	0.1076
1400.00	0.1117
1411.00	0.1151
1422.00	0.1182
1433.00	0.1223
1444.00	0.1256
1455.00	0.1294
1466.00	0.1340
1477.00	0.1382
1488.00	0.1418
1499.00	0.1467
1510.00	0.1517
1521.00	0.1561
1532.00	0.1600
1543.00	0.1646
1554.00	0.1693
1565.00	0.1740
1576.00	0.1786
1587.00	0.1834
1598.00	0.1877
1609.00	0.1925
1620.00	0.1965
1631.00	0.2011
1642.00	0.2039
1653.00	0.2037
1664.00	0.2050
1675.00	0.2089
1686.00	0.2118
1697.00	0.2152
1708.00	0.2182
1719.00	0.2218
1730.00	0.2259
1741.00	0.2291
1752.00	0.2320
1763.00	0.2345
1774.00	0.2379
1785.00	0.2411
1796.00	0.2432
1807.00	0.2457
1818.00	0.2478
1829.00	0.2507
1840.00	0.2525
1851.00	0.2529
1862.00	0.2563
1873.00	0.2580
1884.00	0.2590
1895.00	0.2600
1906.00	0.2639
1917.00	0.2632
1928.00	0.2653
1939.00	0.2668
1950.00	0.2670
1961.00	0.2688
1972.00	0.2697
1983.00	0.2706
1994.00	0.2719
2005.00	0.2720
2016.00	0.2730
2027.00	0.2735
2038.00	0.2740
2049.00	0.2745
2060.00	0.2750
2071.00	0.2751
2082.00	0.2756
2093.00	0.2753
2104.00	0.2759
2115.00	0.2762
2126.00	0.2760
2137.00	0.2758
2148.00	0.2764
2159.00	0.2755
2170.00	0.2758
2181.00	0.2753
2192.00	0.2748
2203.00	0.2740
2214.00	0.2730
2225.00	0.2717
2236.00	0.2734
2247.00	0.2728
2258.00	0.2727
2269.00	0.2728
2280.00	0.2715
2291.00	0.2704
2302.00	0.2704
2313.00	0.2698
2324.00	0.2697
2335.00	0.2687
2346.00	0.2682
2357.00	0.2675
2368.00	0.2664
2379.00	0.2661
2390.00	0.2654
2401.00	0.2643
2412.00	0.2644
2423.00	0.2623
2434.00	0.2617
2445.00	0.2607
2456.00	0.2606
2467.00	0.2577
2478.00	0.2590
2489.00	0.2568
2500.00	0.2557
2511.00	0.2558
2522.00	0.2545
2533.00	0.2533
2544.00	0.2530
2555.00	0.2498
2566.00	0.2518
2577.00	0.2499
2588.00	0.2474
2599.00	0.2455
2610.00	0.2446
2621.00	0.2442
2632.00	0.2436
2643.00	0.2416
2654.00	0.2397
2665.00	0.2399
2676.00	0.2401
2687.00	0.2354
2698.00	0.2434
2709.00	0.2769
2720.00	0.2981
2731.00	0.2886
2742.00	0.2573
2753.00	0.2348
2764.00	0.2145
2775.00	0.2105
2786.00	0.2049
2797.00	0.2054
2808.00	0.2053
2819.00	0.2081
2830.00	0.2116
2841.00	0.2138
2852.00	0.2156
2863.00	0.2162
2874.00	0.2167
2885.00	0.2172
2896.00	0.2168
2907.00	0.2165
2918.00	0.2162
2929.00	0.2152
2940.00	0.2146
2951.00	0.2143
2962.00	0.2129
2973.00	0.2136
2984.00	0.2127
2995.00	0.2117
3006.00	0.2135
3017.00	0.2123
3028.00	0.2116
3039.00	0.2105
3050.00	0.2097
3061.00	0.2097
3072.00	0.2092
3083.00	0.2074
3094.00	0.2059
3105.00	0.2051
3116.00	0.2048
3127.00	0.2029
3138.00	0.2010
3149.00	0.1993
3160.00	0.1991
3171.00	0.1981
3182.00	0.1987
3193.00	0.1969
3204.00	0.1956
3215.00	0.1938
3226.00	0.1926
3237.00	0.1906
3248.00	0.1884
3259.00	0.1896
3270.00	0.1876
3281.00	0.1858
3292.00	0.1894
3300.00	0.1995