File: Xyl_UV_VIS_5mM.txt
"RawData - P3h-Doped F4tcnq_Xylene-5mmol"
"Wavelength nm.","Abs."
300.00,
311.00,
322.00,
333.00,
344.00,
355.00,
366.00,
377.00,
388.00,
399.00,
410.00,
421.00,
432.00,
443.00,
454.00,
465.00,
476.00,
487.00,
498.00,
509.00,
520.00,
531.00,
542.00,
553.00,
564.00,
575.00,
586.00,
597.00,
608.00,
619.00,
630.00,
641.00,
652.00,
663.00,
674.00,
685.00,
696.00,
707.00,
718.00,
729.00,
740.00,
751.00,
762.00,
773.00,
784.00,
795.00,
806.00,
817.00,
828.00,
839.00,
850.00,
861.00,
872.00,
883.00,
894.00,
905.00,
916.00,
927.00,
938.00,
949.00,
960.00,
971.00,
982.00,
993.00,
1004.00,0.0411
1015.00,
1026.00,0.0343
1037.00,
1048.00,0.0284
1059.00,
1070.00,0.0238
1081.00,
1092.00,0.0207
1103.00,
1114.00,0.0187
1125.00,
1136.00,0.0174
1147.00,
1158.00,0.0167
1169.00,
1180.00,0.0165
1191.00,
1202.00,0.0166
1213.00,
1224.00,0.0171
1235.00,
1246.00,0.0178
1257.00,
1268.00,0.0186
1279.00,
1290.00,0.0196
1301.00,
1312.00,0.0203
1323.00,
1334.00,0.0227
1345.00,
1356.00,0.0246
1367.00,
1378.00,0.0268
1389.00,
1400.00,0.0284
1411.00,
1422.00,0.0306
1433.00,
1444.00,0.0330
1455.00,
1466.00,0.0359
1477.00,
1488.00,0.0386
1499.00,
1510.00,0.0413
1521.00,
1532.00,0.0447
1543.00,
1554.00,0.0478
1565.00,
1576.00,0.0515
1587.00,
1598.00,0.0549
1609.00,
1620.00,0.0585
1631.00,
1642.00,0.0620
1653.00,
1664.00,0.0655
1675.00,
1686.00,0.0685
1697.00,
1708.00,0.0715
1719.00,
1730.00,0.0745
1741.00,
1752.00,0.0774
1763.00,
1774.00,0.0802
1785.00,
1796.00,0.0829
1807.00,
1818.00,0.0856
1829.00,
1840.00,0.0889
1851.00,
1862.00,0.0907
1873.00,
1884.00,0.0924
1895.00,
1906.00,0.0954
1917.00,
1928.00,0.0958
1939.00,
1950.00,0.0973
1961.00,
1972.00,0.0983
1983.00,
1994.00,0.0991
2005.00,
2016.00,0.1001
2027.00,
2038.00,0.1011
2049.00,
2060.00,0.1021
2071.00,
2082.00,0.1027
2093.00,
2104.00,0.1034
2115.00,
2126.00,0.1035
2137.00,
2148.00,0.1035
2159.00,
2170.00,0.1036
2181.00,
2192.00,0.1042
2203.00,
2214.00,0.1055
2225.00,
2236.00,0.1045
2247.00,
2258.00,0.1034
2269.00,
2280.00,0.1034
2291.00,
2302.00,0.1027
2313.00,
2324.00,0.1020
2335.00,
2346.00,0.1013
2357.00,
2368.00,0.1007
2379.00,
2390.00,0.0999
2401.00,
2412.00,0.0994
2423.00,
2434.00,0.0985
2445.00,
2456.00,0.0984
2467.00,
2478.00,0.0977
2489.00,
2500.00,0.0975
2511.00,
2522.00,0.0985
2533.00,
2544.00,0.0975
2555.00,
2566.00,0.0977
2577.00,
2588.00,0.0964
2599.00,
2610.00,0.0966
2621.00,
2632.00,0.0945
2643.00,
2654.00,0.0925
2665.00,
2676.00,0.1059
2687.00,
2698.00,0.1609
2709.00,
2720.00,0.1929
2731.00,
2742.00,0.1656
2753.00,
2764.00,0.1402
2775.00,
2786.00,0.1199
2797.00,
2808.00,0.1046
2819.00,
2830.00,0.0962
2841.00,
2852.00,0.0918
2863.00,
2874.00,0.0881
2885.00,
2896.00,0.0861
2907.00,
2918.00,0.0841
2929.00,
2940.00,0.0825
2951.00,
2962.00,0.0808
2973.00,
2984.00,0.0798
2995.00,
3006.00,0.0789
3017.00,
3028.00,0.0780
3039.00,
3050.00,0.0770
3061.00,
3072.00,0.0761
3083.00,
3094.00,0.0751
3105.00,
3116.00,0.0743
3127.00,
3138.00,0.0731
3149.00,
3160.00,0.0724
3171.00,
3182.00,0.0708
3193.00,
3204.00,0.0693
3215.00,
3226.00,0.0689
3237.00,
3248.00,0.0673
3259.00,
3270.00,0.0686
3281.00,
3292.00,0.0676
3300.00,0.0694