File: Xyl_UV_VIS_0mM.txt
"20-30mM-1_Xylene0mM - RawData"
"Wavelength nm."	"Abs."
300.00	0.0391
311.00	0.0368
322.00	0.0362
333.00	0.0357
344.00	0.0410
355.00	0.0450
366.00	0.0521
377.00	0.0567
388.00	0.0642
399.00	0.0725
410.00	0.0824
421.00	0.0945
432.00	0.1069
443.00	0.1233
454.00	0.1427
465.00	0.1648
476.00	0.1882
487.00	0.2110
498.00	0.2318
509.00	0.2510
520.00	0.2631
531.00	0.2664
542.00	0.2664
553.00	0.2672
564.00	0.2541
575.00	0.2272
586.00	0.2034
597.00	0.1916
608.00	0.1787
619.00	0.1456
630.00	0.1027
641.00	0.0679
652.00	0.0493
663.00	0.0393
674.00	0.0354
685.00	0.0305
696.00	0.0278
707.00	0.0262
718.00	0.0244
729.00	0.0227
740.00	0.0218
751.00	0.0215
762.00	0.0203
773.00	0.0189
784.00	0.0178
795.00	0.0169
806.00	0.0118
817.00	0.0095
828.00	0.0096
839.00	0.0100
850.00	0.0099
861.00	0.0095
872.00	0.0090
883.00	0.0090
894.00	0.0087
905.00	0.0083
916.00	0.0081
927.00	0.0079
938.00	0.0079
949.00	0.0078
960.00	0.0078
971.00	0.0076
982.00	0.0078
993.00	0.0077
1004.00	0.0067
1015.00	0.0073
1026.00	0.0072
1037.00	0.0068
1048.00	0.0072
1059.00	0.0075
1070.00	0.0067
1081.00	0.0061
1092.00	0.0064
1103.00	0.0064
1114.00	0.0057
1125.00	0.0054
1136.00	0.0056
1147.00	0.0059
1158.00	0.0059
1169.00	0.0057
1180.00	0.0057
1191.00	0.0061
1202.00	0.0058
1213.00	0.0060
1224.00	0.0062
1235.00	0.0059
1246.00	0.0059
1257.00	0.0057
1268.00	0.0056
1279.00	0.0056
1290.00	0.0047
1301.00	0.0049
1312.00	0.0050
1323.00	0.0038
1334.00	0.0039
1345.00	0.0041
1356.00	0.0037
1367.00	0.0047
1378.00	0.0054
1389.00	0.0044
1400.00	0.0051
1411.00	0.0050
1422.00	0.0048
1433.00	0.0045
1444.00	0.0039
1455.00	0.0040
1466.00	0.0040
1477.00	0.0037
1488.00	0.0037
1499.00	0.0038
1510.00	0.0039
1521.00	0.0043
1532.00	0.0040
1543.00	0.0040
1554.00	0.0036
1565.00	0.0041
1576.00	0.0041
1587.00	0.0039
1598.00	0.0042
1609.00	0.0041
1620.00	0.0042
1631.00	0.0045
1642.00	0.0037
1653.00	0.0008
1664.00	-0.0005
1675.00	-0.0008
1686.00	-0.0010
1697.00	-0.0013
1708.00	-0.0012
1719.00	-0.0009
1730.00	-0.0002
1741.00	6.7304e-007
1752.00	-0.0004
1763.00	-0.0001
1774.00	-0.0001
1785.00	0.0003
1796.00	-0.0000
1807.00	0.0003
1818.00	-0.0004
1829.00	0.0006
1840.00	0.0006
1851.00	-0.0004
1862.00	-0.0001
1873.00	0.0006
1884.00	-0.0005
1895.00	-0.0009
1906.00	0.0009
1917.00	0.0004
1928.00	0.0006
1939.00	0.0002
1950.00	0.0005
1961.00	0.0009
1972.00	0.0008
1983.00	0.0005
1994.00	0.0013
2005.00	0.0012
2016.00	0.0001
2027.00	0.0009
2038.00	0.0009
2049.00	0.0006
2060.00	0.0004
2071.00	0.0006
2082.00	0.0005
2093.00	-0.0001
2104.00	0.0000
2115.00	0.0002
2126.00	0.0002
2137.00	0.0003
2148.00	0.0007
2159.00	0.0006
2170.00	0.0002
2181.00	0.0008
2192.00	0.0012
2203.00	0.0018
2214.00	0.0010
2225.00	0.0010
2236.00	0.0019
2247.00	0.0019
2258.00	0.0019
2269.00	0.0024
2280.00	0.0011
2291.00	0.0003
2302.00	0.0014
2313.00	0.0006
2324.00	0.0014
2335.00	0.0011
2346.00	0.0006
2357.00	0.0011
2368.00	0.0005
2379.00	0.0009
2390.00	0.0011
2401.00	0.0010
2412.00	0.0010
2423.00	0.0008
2434.00	0.0009
2445.00	0.0010
2456.00	0.0012
2467.00	0.0012
2478.00	0.0008
2489.00	0.0006
2500.00	0.0015
2511.00	0.0025
2522.00	0.0027
2533.00	0.0022
2544.00	0.0028
2555.00	0.0013
2566.00	0.0027
2577.00	0.0031
2588.00	0.0009
2599.00	-0.0003
2610.00	0.0023
2621.00	0.0025
2632.00	0.0028
2643.00	0.0042
2654.00	0.0036
2665.00	0.0015
2676.00	0.0163
2687.00	0.0302
2698.00	0.0545
2709.00	0.0735
2720.00	0.0633
2731.00	0.0568
2742.00	0.0436
2753.00	0.0396
2764.00	0.0329
2775.00	0.0252
2786.00	0.0224
2797.00	0.0210
2808.00	0.0150
2819.00	0.0123
2830.00	0.0104
2841.00	0.0085
2852.00	0.0070
2863.00	0.0059
2874.00	0.0054
2885.00	0.0046
2896.00	0.0041
2907.00	0.0036
2918.00	0.0030
2929.00	0.0029
2940.00	0.0030
2951.00	0.0030
2962.00	0.0025
2973.00	0.0030
2984.00	0.0021
2995.00	0.0028
3006.00	0.0041
3017.00	0.0038
3028.00	0.0041
3039.00	0.0035
3050.00	0.0034
3061.00	0.0052
3072.00	0.0052
3083.00	0.0039
3094.00	0.0040
3105.00	0.0037
3116.00	0.0041
3127.00	0.0030
3138.00	0.0031
3149.00	0.0032
3160.00	0.0036
3171.00	0.0042
3182.00	0.0058
3193.00	0.0042
3204.00	0.0022
3215.00	0.0023
3226.00	0.0063
3237.00	0.0050
3248.00	0.0010
3259.00	0.0035
3270.00	0.0001
3281.00	-0.0019
3292.00	0.0049
3300.00	0.0147