File: Xyl_UV_VIS_30mM.txt
"20-30mM-1_Xylene30mM - RawData"
"Wavelength nm."	"Abs."
300.00	0.1387
311.00	0.1593
322.00	0.1827
333.00	0.1994
344.00	0.2192
355.00	0.2310
366.00	0.2377
377.00	0.2458
388.00	0.2570
399.00	0.2647
410.00	0.2735
421.00	0.2760
432.00	0.2675
443.00	0.2526
454.00	0.2357
465.00	0.2314
476.00	0.2303
487.00	0.2305
498.00	0.2296
509.00	0.2284
520.00	0.2234
531.00	0.2173
542.00	0.2096
553.00	0.2024
564.00	0.1948
575.00	0.1867
586.00	0.1777
597.00	0.1672
608.00	0.1574
619.00	0.1496
630.00	0.1440
641.00	0.1397
652.00	0.1384
663.00	0.1380
674.00	0.1395
685.00	0.1406
696.00	0.1412
707.00	0.1415
718.00	0.1422
729.00	0.1424
740.00	0.1450
751.00	0.1480
762.00	0.1498
773.00	0.1496
784.00	0.1462
795.00	0.1421
806.00	0.1364
817.00	0.1323
828.00	0.1312
839.00	0.1326
850.00	0.1360
861.00	0.1362
872.00	0.1348
883.00	0.1305
894.00	0.1226
905.00	0.1144
916.00	0.1076
927.00	0.1012
938.00	0.0958
949.00	0.0900
960.00	0.0847
971.00	0.0798
982.00	0.0750
993.00	0.0709
1004.00	0.0662
1015.00	0.0621
1026.00	0.0587
1037.00	0.0553
1048.00	0.0524
1059.00	0.0502
1070.00	0.0476
1081.00	0.0452
1092.00	0.0438
1103.00	0.0426
1114.00	0.0410
1125.00	0.0401
1136.00	0.0394
1147.00	0.0390
1158.00	0.0388
1169.00	0.0383
1180.00	0.0383
1191.00	0.0385
1202.00	0.0384
1213.00	0.0386
1224.00	0.0388
1235.00	0.0391
1246.00	0.0392
1257.00	0.0390
1268.00	0.0398
1279.00	0.0406
1290.00	0.0404
1301.00	0.0414
1312.00	0.0416
1323.00	0.0419
1334.00	0.0421
1345.00	0.0433
1356.00	0.0436
1367.00	0.0454
1378.00	0.0457
1389.00	0.0470
1400.00	0.0485
1411.00	0.0489
1422.00	0.0505
1433.00	0.0519
1444.00	0.0529
1455.00	0.0535
1466.00	0.0551
1477.00	0.0566
1488.00	0.0581
1499.00	0.0585
1510.00	0.0612
1521.00	0.0624
1532.00	0.0640
1543.00	0.0653
1554.00	0.0671
1565.00	0.0688
1576.00	0.0697
1587.00	0.0721
1598.00	0.0738
1609.00	0.0757
1620.00	0.0769
1631.00	0.0792
1642.00	0.0784
1653.00	0.0772
1664.00	0.0771
1675.00	0.0781
1686.00	0.0800
1697.00	0.0810
1708.00	0.0817
1719.00	0.0838
1730.00	0.0859
1741.00	0.0866
1752.00	0.0880
1763.00	0.0893
1774.00	0.0909
1785.00	0.0925
1796.00	0.0938
1807.00	0.0952
1818.00	0.0958
1829.00	0.0975
1840.00	0.0988
1851.00	0.0983
1862.00	0.1002
1873.00	0.1017
1884.00	0.1015
1895.00	0.1016
1906.00	0.1050
1917.00	0.1044
1928.00	0.1054
1939.00	0.1065
1950.00	0.1069
1961.00	0.1076
1972.00	0.1082
1983.00	0.1087
1994.00	0.1098
2005.00	0.1103
2016.00	0.1108
2027.00	0.1110
2038.00	0.1116
2049.00	0.1119
2060.00	0.1127
2071.00	0.1136
2082.00	0.1138
2093.00	0.1137
2104.00	0.1140
2115.00	0.1150
2126.00	0.1150
2137.00	0.1153
2148.00	0.1154
2159.00	0.1152
2170.00	0.1152
2181.00	0.1163
2192.00	0.1152
2203.00	0.1152
2214.00	0.1151
2225.00	0.1142
2236.00	0.1154
2247.00	0.1156
2258.00	0.1160
2269.00	0.1159
2280.00	0.1159
2291.00	0.1156
2302.00	0.1151
2313.00	0.1152
2324.00	0.1159
2335.00	0.1155
2346.00	0.1153
2357.00	0.1149
2368.00	0.1153
2379.00	0.1152
2390.00	0.1155
2401.00	0.1149
2412.00	0.1148
2423.00	0.1138
2434.00	0.1134
2445.00	0.1142
2456.00	0.1148
2467.00	0.1126
2478.00	0.1141
2489.00	0.1125
2500.00	0.1119
2511.00	0.1132
2522.00	0.1130
2533.00	0.1120
2544.00	0.1116
2555.00	0.1096
2566.00	0.1120
2577.00	0.1113
2588.00	0.1089
2599.00	0.1093
2610.00	0.1083
2621.00	0.1089
2632.00	0.1093
2643.00	0.1074
2654.00	0.1057
2665.00	0.1050
2676.00	0.1084
2687.00	0.1030
2698.00	0.1204
2709.00	0.1525
2720.00	0.1869
2731.00	0.1677
2742.00	0.1447
2753.00	0.1184
2764.00	0.0973
2775.00	0.0863
2786.00	0.0823
2797.00	0.0826
2808.00	0.0827
2819.00	0.0851
2830.00	0.0879
2841.00	0.0911
2852.00	0.0934
2863.00	0.0955
2874.00	0.0962
2885.00	0.0968
2896.00	0.0975
2907.00	0.0978
2918.00	0.0983
2929.00	0.0977
2940.00	0.0977
2951.00	0.0975
2962.00	0.0975
2973.00	0.0984
2984.00	0.0977
2995.00	0.0972
3006.00	0.0998
3017.00	0.0998
3028.00	0.0997
3039.00	0.0998
3050.00	0.0988
3061.00	0.0993
3072.00	0.0996
3083.00	0.0979
3094.00	0.0979
3105.00	0.0975
3116.00	0.0970
3127.00	0.0963
3138.00	0.0958
3149.00	0.0945
3160.00	0.0934
3171.00	0.0927
3182.00	0.0947
3193.00	0.0955
3204.00	0.0957
3215.00	0.0935
3226.00	0.0965
3237.00	0.0947
3248.00	0.0908
3259.00	0.0902
3270.00	0.0888
3281.00	0.0892
3292.00	0.0960
3300.00	0.1096