File: Xyl_UV_VIS_20mM.txt
"20-30mM-1_Xylene20mM - RawData"
"Wavelength nm."	"Abs."
300.00	0.1017
311.00	0.1144
322.00	0.1333
333.00	0.1496
344.00	0.1691
355.00	0.1797
366.00	0.1843
377.00	0.1889
388.00	0.1967
399.00	0.2031
410.00	0.2110
421.00	0.2155
432.00	0.2115
443.00	0.2055
454.00	0.2016
465.00	0.2037
476.00	0.2065
487.00	0.2108
498.00	0.2117
509.00	0.2117
520.00	0.2070
531.00	0.2014
542.00	0.1932
553.00	0.1864
564.00	0.1797
575.00	0.1725
586.00	0.1627
597.00	0.1530
608.00	0.1434
619.00	0.1367
630.00	0.1303
641.00	0.1266
652.00	0.1259
663.00	0.1249
674.00	0.1274
685.00	0.1285
696.00	0.1296
707.00	0.1310
718.00	0.1324
729.00	0.1319
740.00	0.1346
751.00	0.1372
762.00	0.1391
773.00	0.1399
784.00	0.1358
795.00	0.1310
806.00	0.1198
817.00	0.1159
828.00	0.1155
839.00	0.1159
850.00	0.1183
861.00	0.1183
872.00	0.1175
883.00	0.1140
894.00	0.1068
905.00	0.1001
916.00	0.0936
927.00	0.0878
938.00	0.0833
949.00	0.0775
960.00	0.0730
971.00	0.0681
982.00	0.0634
993.00	0.0592
1004.00	0.0548
1015.00	0.0508
1026.00	0.0473
1037.00	0.0441
1048.00	0.0412
1059.00	0.0394
1070.00	0.0367
1081.00	0.0349
1092.00	0.0327
1103.00	0.0321
1114.00	0.0308
1125.00	0.0303
1136.00	0.0294
1147.00	0.0290
1158.00	0.0290
1169.00	0.0286
1180.00	0.0285
1191.00	0.0287
1202.00	0.0285
1213.00	0.0291
1224.00	0.0293
1235.00	0.0296
1246.00	0.0293
1257.00	0.0302
1268.00	0.0314
1279.00	0.0310
1290.00	0.0319
1301.00	0.0324
1312.00	0.0334
1323.00	0.0339
1334.00	0.0349
1345.00	0.0356
1356.00	0.0366
1367.00	0.0378
1378.00	0.0393
1389.00	0.0403
1400.00	0.0414
1411.00	0.0428
1422.00	0.0444
1433.00	0.0454
1444.00	0.0460
1455.00	0.0480
1466.00	0.0490
1477.00	0.0500
1488.00	0.0518
1499.00	0.0536
1510.00	0.0555
1521.00	0.0571
1532.00	0.0585
1543.00	0.0600
1554.00	0.0617
1565.00	0.0634
1576.00	0.0650
1587.00	0.0669
1598.00	0.0686
1609.00	0.0704
1620.00	0.0722
1631.00	0.0739
1642.00	0.0750
1653.00	0.0737
1664.00	0.0742
1675.00	0.0754
1686.00	0.0774
1697.00	0.0781
1708.00	0.0794
1719.00	0.0819
1730.00	0.0834
1741.00	0.0846
1752.00	0.0865
1763.00	0.0873
1774.00	0.0891
1785.00	0.0906
1796.00	0.0917
1807.00	0.0934
1818.00	0.0935
1829.00	0.0955
1840.00	0.0971
1851.00	0.0966
1862.00	0.0987
1873.00	0.0997
1884.00	0.1002
1895.00	0.1006
1906.00	0.1036
1917.00	0.1033
1928.00	0.1045
1939.00	0.1055
1950.00	0.1059
1961.00	0.1066
1972.00	0.1070
1983.00	0.1080
1994.00	0.1084
2005.00	0.1098
2016.00	0.1098
2027.00	0.1105
2038.00	0.1108
2049.00	0.1110
2060.00	0.1125
2071.00	0.1130
2082.00	0.1125
2093.00	0.1139
2104.00	0.1140
2115.00	0.1134
2126.00	0.1149
2137.00	0.1148
2148.00	0.1151
2159.00	0.1150
2170.00	0.1155
2181.00	0.1156
2192.00	0.1155
2203.00	0.1149
2214.00	0.1139
2225.00	0.1140
2236.00	0.1145
2247.00	0.1154
2258.00	0.1152
2269.00	0.1156
2280.00	0.1152
2291.00	0.1152
2302.00	0.1155
2313.00	0.1158
2324.00	0.1157
2335.00	0.1159
2346.00	0.1150
2357.00	0.1155
2368.00	0.1149
2379.00	0.1155
2390.00	0.1152
2401.00	0.1153
2412.00	0.1145
2423.00	0.1139
2434.00	0.1139
2445.00	0.1134
2456.00	0.1137
2467.00	0.1130
2478.00	0.1135
2489.00	0.1128
2500.00	0.1120
2511.00	0.1125
2522.00	0.1123
2533.00	0.1110
2544.00	0.1110
2555.00	0.1086
2566.00	0.1106
2577.00	0.1101
2588.00	0.1080
2599.00	0.1089
2610.00	0.1077
2621.00	0.1078
2632.00	0.1082
2643.00	0.1068
2654.00	0.1056
2665.00	0.1054
2676.00	0.1070
2687.00	0.1041
2698.00	0.1166
2709.00	0.1513
2720.00	0.1717
2731.00	0.1644
2742.00	0.1354
2753.00	0.1138
2764.00	0.0946
2775.00	0.0865
2786.00	0.0828
2797.00	0.0824
2808.00	0.0834
2819.00	0.0861
2830.00	0.0888
2841.00	0.0911
2852.00	0.0932
2863.00	0.0945
2874.00	0.0952
2885.00	0.0957
2896.00	0.0961
2907.00	0.0964
2918.00	0.0962
2929.00	0.0963
2940.00	0.0966
2951.00	0.0967
2962.00	0.0960
2973.00	0.0971
2984.00	0.0971
2995.00	0.0967
3006.00	0.1048
3017.00	0.1061
3028.00	0.1056
3039.00	0.1051
3050.00	0.1050
3061.00	0.1055
3072.00	0.1057
3083.00	0.1052
3094.00	0.1046
3105.00	0.1039
3116.00	0.1033
3127.00	0.1021
3138.00	0.1024
3149.00	0.1015
3160.00	0.1001
3171.00	0.1004
3182.00	0.1014
3193.00	0.1015
3204.00	0.1002
3215.00	0.0974
3226.00	0.1007
3237.00	0.0990
3248.00	0.0973
3259.00	0.0956
3270.00	0.0921
3281.00	0.0917
3292.00	0.1034
3300.00	0.1270